time [s] Activity [arb units]
0.0000 0.0000
0.0167 0.3172
0.0333 0.6011
0.0500 0.8545
0.0667 1.0802
0.0833 1.2806
0.1000 1.4580
0.1167 1.6146
0.1333 1.7521
0.1500 1.8724
0.1667 1.9771
0.1833 2.0677
0.2000 2.1454
0.2167 2.2115
0.2333 2.2672
0.2500 2.3135
0.2667 2.3513
0.2833 2.3815
0.3000 2.4048
0.3167 2.4220
0.3333 2.4338
0.3500 2.4406
0.3667 2.4432
0.3833 2.4418
0.4000 2.4371
0.4167 2.4294
0.4333 2.4190
0.4500 2.4064
0.4667 2.3918
0.4833 2.3754
0.5000 2.3576
0.5167 2.3384
0.5333 2.3183
0.5500 2.2972
0.5667 2.2755
0.5833 2.2532
0.6000 2.2304
0.6167 2.2073
0.6333 2.1839
0.6500 2.1604
0.6667 2.1369
0.6833 2.1134
0.7000 2.0899
0.7167 2.0666
0.7333 2.0434
0.7500 2.0205
0.7667 1.9978
0.7833 1.9754
0.8000 1.9533
0.8167 1.9315
0.8333 1.9101
0.8500 1.8891
0.8667 1.8684
0.8833 1.8480
0.9000 1.8281
0.9167 1.8086
0.9333 1.7894
0.9500 1.7707
0.9667 1.7523
0.9833 1.7343
1.0000 1.7167
1.0167 1.6995
1.0333 1.6827
1.0500 1.6662
1.0667 1.6501
1.0833 1.6344
1.1000 1.6190
1.1167 1.6040
1.1333 1.5892
1.1500 1.5748
1.1667 1.5608
1.1833 1.5470
1.2000 1.5336
1.2167 1.5204
1.2333 1.5075
1.2500 1.4949
1.2667 1.4826
1.2833 1.4705
1.3000 1.4587
1.3167 1.4471
1.3333 1.4358
1.3500 1.4247
1.3667 1.4138
1.3833 1.4031
1.4000 1.3926
1.4167 1.3824
1.4333 1.3723
1.4500 1.3625
1.4667 1.3528
1.4833 1.3433
1.5000 1.3339
1.5167 1.3248
1.5333 1.3158
1.5500 1.3069
1.5667 1.2982
1.5833 1.2896
1.6000 1.2812
1.6167 1.2730
1.6333 1.2648
1.6500 1.2568
1.6667 1.2489
1.6833 1.2411
1.7000 1.2335
1.7167 1.2259
1.7333 1.2185
1.7500 1.2112
1.7667 1.2040
1.7833 1.1969
1.8000 1.1898
1.8167 1.1829
1.8333 1.1761
1.8500 1.1693
1.8667 1.1627
1.8833 1.1561
1.9000 1.1496
1.9167 1.1432
1.9333 1.1369
1.9500 1.1306
1.9667 1.1245
1.9833 1.1184
2.0000 1.1123
2.0167 1.1064
2.0333 1.1005
2.0500 1.0947
2.0667 1.0889
2.0833 1.0832
2.1000 1.0776
2.1167 1.0720
2.1333 1.0665
2.1500 1.0610
2.1667 1.0556
2.1833 1.0502
2.2000 1.0450
2.2167 1.0397
2.2333 1.0345
2.2500 1.0294
2.2667 1.0243
2.2833 1.0193
2.3000 1.0143
2.3167 1.0094
2.3333 1.0045
2.3500 0.9996
2.3667 0.9948
2.3833 0.9901
2.4000 0.9854
2.4167 0.9807
2.4333 0.9761
2.4500 0.9715
2.4667 0.9670
2.4833 0.9625
2.5000 0.9581
2.5167 0.9536
2.5333 0.9493
2.5500 0.9449
2.5667 0.9406
2.5833 0.9364
2.6000 0.9322
2.6167 0.9280
2.6333 0.9238
2.6500 0.9197
2.6667 0.9157
2.6833 0.9116
2.7000 0.9076
2.7167 0.9037
2.7333 0.8997
2.7500 0.8958
2.7667 0.8920
2.7833 0.8881
2.8000 0.8843
2.8167 0.8806
2.8333 0.8768
2.8500 0.8731
2.8667 0.8695
2.8833 0.8658
2.9000 0.8622
2.9167 0.8586
2.9333 0.8551
2.9500 0.8516
2.9667 0.8481
2.9833 0.8446
3.0000 0.8412
3.0167 0.8378
3.0333 0.8344
3.0500 0.8310
3.0667 0.8277
3.0833 0.8244
3.1000 0.8212
3.1167 0.8179
3.1333 0.8147
3.1500 0.8115
3.1667 0.8084
3.1833 0.8052
3.2000 0.8021
3.2167 0.7991
3.2333 0.7960
3.2500 0.7930
3.2667 0.7900
3.2833 0.7870
3.3000 0.7840
3.3167 0.7811
3.3333 0.7782
3.3500 0.7753
3.3667 0.7725
3.3833 0.7696
3.4000 0.7668
3.4167 0.7640
3.4333 0.7612
3.4500 0.7585
3.4667 0.7558
3.4833 0.7531
3.5000 0.7504
3.5167 0.7477
3.5333 0.7451
3.5500 0.7425
3.5667 0.7399
3.5833 0.7373
3.6000 0.7348
3.6167 0.7323
3.6333 0.7297
3.6500 0.7273
3.6667 0.7248
3.6833 0.7223
3.7000 0.7199
3.7167 0.7175
3.7333 0.7151
3.7500 0.7128
3.7667 0.7104
3.7833 0.7081
3.8000 0.7058
3.8167 0.7035
3.8333 0.7012
3.8500 0.6989
3.8667 0.6967
3.8833 0.6945
3.9000 0.6923
3.9167 0.6901
3.9333 0.6879
3.9500 0.6858
3.9667 0.6836
3.9833 0.6815
4.0000 0.6794
4.0167 0.6774
4.0333 0.6753
4.0500 0.6732
4.0667 0.6712
4.0833 0.6692
4.1000 0.6672
4.1167 0.6652
4.1333 0.6633
4.1500 0.6613
4.1667 0.6594
4.1833 0.6575
4.2000 0.6556
4.2167 0.6537
4.2333 0.6518
4.2500 0.6499
4.2667 0.6481
4.2833 0.6463
4.3000 0.6445
4.3167 0.6427
4.3333 0.6409
4.3500 0.6391
4.3667 0.6374
4.3833 0.6356
4.4000 0.6339
4.4167 0.6322
4.4333 0.6305
4.4500 0.6288
4.4667 0.6271
4.4833 0.6255
4.5000 0.6238
4.5167 0.6222
4.5333 0.6206
4.5500 0.6189
4.5667 0.6174
4.5833 0.6158
4.6000 0.6142
4.6167 0.6127
4.6333 0.6111
4.6500 0.6096
4.6667 0.6081
4.6833 0.6066
4.7000 0.6051
4.7167 0.6036
4.7333 0.6021
4.7500 0.6006
4.7667 0.5992
4.7833 0.5978
4.8000 0.5963
4.8167 0.5949
4.8333 0.5935
4.8500 0.5921
4.8667 0.5908
4.8833 0.5894
4.9000 0.5880
4.9167 0.5867
4.9333 0.5853
4.9500 0.5840
4.9667 0.5827
4.9833 0.5814
5.0000 0.5801
5.0167 0.5788
5.0333 0.5776
5.0500 0.5763
5.0667 0.5750
5.0833 0.5738
5.1000 0.5726
5.1167 0.5713
5.1333 0.5701
5.1500 0.5689
5.1667 0.5677
5.1833 0.5665
5.2000 0.5654
5.2167 0.5642
5.2333 0.5630
5.2500 0.5619
5.2667 0.5607
5.2833 0.5596
5.3000 0.5585
5.3167 0.5574
5.3333 0.5563
5.3500 0.5552
5.3667 0.5541
5.3833 0.5530
5.4000 0.5519
5.4167 0.5509
5.4333 0.5498
5.4500 0.5488
5.4667 0.5477
5.4833 0.5467
5.5000 0.5457
5.5167 0.5447
5.5333 0.5437
5.5500 0.5427
5.5667 0.5417
5.5833 0.5407
5.6000 0.5397
5.6167 0.5388
5.6333 0.5378
5.6500 0.5369
5.6667 0.5359
5.6833 0.5350
5.7000 0.5341
5.7167 0.5331
5.7333 0.5322
5.7500 0.5313
5.7667 0.5304
5.7833 0.5295
5.8000 0.5286
5.8167 0.5278
5.8333 0.5269
5.8500 0.5260
5.8667 0.5252
5.8833 0.5243
5.9000 0.5235
5.9167 0.5226
5.9333 0.5218
5.9500 0.5210
5.9667 0.5201
5.9833 0.5193
6.0000 0.5185
6.0167 0.5177
6.0333 0.5169
6.0500 0.5161
6.0667 0.5154
6.0833 0.5146
6.1000 0.5138
6.1167 0.5130
6.1333 0.5123
6.1500 0.5115
6.1667 0.5108
6.1833 0.5100
6.2000 0.5093
6.2167 0.5086
6.2333 0.5079
6.2500 0.5071
6.2667 0.5064
6.2833 0.5057
6.3000 0.5050
6.3167 0.5043
6.3333 0.5036
6.3500 0.5029
6.3667 0.5023
6.3833 0.5016
6.4000 0.5009
6.4167 0.5002
6.4333 0.4996
6.4500 0.4989
6.4667 0.4983
6.4833 0.4976
6.5000 0.4970
6.5167 0.4964
6.5333 0.4957
6.5500 0.4951
6.5667 0.4945
6.5833 0.4939
6.6000 0.4932
6.6167 0.4926
6.6333 0.4920
6.6500 0.4914
6.6667 0.4908
6.6833 0.4903
6.7000 0.4897
6.7167 0.4891
6.7333 0.4885
6.7500 0.4879
6.7667 0.4874
6.7833 0.4868
6.8000 0.4862
6.8167 0.4857
6.8333 0.4851
6.8500 0.4846
6.8667 0.4840
6.8833 0.4835
6.9000 0.4830
6.9167 0.4824
6.9333 0.4819
6.9500 0.4814
6.9667 0.4809
6.9833 0.4804
7.0000 0.4798
7.0167 0.4793
7.0333 0.4788
7.0500 0.4783
7.0667 0.4778
7.0833 0.4773
7.1000 0.4769
7.1167 0.4764
7.1333 0.4759
7.1500 0.4754
7.1667 0.4749
7.1833 0.4745
7.2000 0.4740
7.2167 0.4735
7.2333 0.4731
7.2500 0.4726
7.2667 0.4722
7.2833 0.4717
7.3000 0.4713
7.3167 0.4708
7.3333 0.4704
7.3500 0.4699
7.3667 0.4695
7.3833 0.4691
7.4000 0.4686
7.4167 0.4682
7.4333 0.4678
7.4500 0.4674
7.4667 0.4670
7.4833 0.4665
7.5000 0.4661
7.5167 0.4657
7.5333 0.4653
7.5500 0.4649
7.5667 0.4645
7.5833 0.4641
7.6000 0.4637
7.6167 0.4633
7.6333 0.4629
7.6500 0.4626
7.6667 0.4622
7.6833 0.4618
7.7000 0.4614
7.7167 0.4610
7.7333 0.4607
7.7500 0.4603
7.7667 0.4599
7.7833 0.4596
7.8000 0.4592
7.8167 0.4589
7.8333 0.4585
7.8500 0.4581
7.8667 0.4578
7.8833 0.4574
7.9000 0.4571
7.9167 0.4568
7.9333 0.4564
7.9500 0.4561
7.9667 0.4557
7.9833 0.4554
8.0000 0.4551
8.0167 0.4547
8.0333 0.4544
8.0500 0.4541
8.0667 0.4538
8.0833 0.4534
8.1000 0.4531
8.1167 0.4528
8.1333 0.4525
8.1500 0.4522
8.1667 0.4519
8.1833 0.4516
8.2000 0.4513
8.2167 0.4510
8.2333 0.4507
8.2500 0.4504
8.2667 0.4501
8.2833 0.4498
8.3000 0.4495
8.3167 0.4492
8.3333 0.4489
8.3500 0.4486
8.3667 0.4483
8.3833 0.4480
8.4000 0.4477
8.4167 0.4475
8.4333 0.4472
8.4500 0.4469
8.4667 0.4466
8.4833 0.4464
8.5000 0.4461
8.5167 0.4458
8.5333 0.4456
8.5500 0.4453
8.5667 0.4450
8.5833 0.4448
8.6000 0.4445
8.6167 0.4442
8.6333 0.4440
8.6500 0.4437
8.6667 0.4435
8.6833 0.4432
8.7000 0.4430
8.7167 0.4427
8.7333 0.4425
8.7500 0.4422
8.7667 0.4420
8.7833 0.4417
8.8000 0.4415
8.8167 0.4413
8.8333 0.4410
8.8500 0.4408
8.8667 0.4406
8.8833 0.4403
8.9000 0.4401
8.9167 0.4399
8.9333 0.4396
8.9500 0.4394
8.9667 0.4392
8.9833 0.4390
9.0000 0.4387
9.0167 0.4385
9.0333 0.4383
9.0500 0.4381
9.0667 0.4379
9.0833 0.4376
9.1000 0.4374
9.1167 0.4372
9.1333 0.4370
9.1500 0.4368
9.1667 0.4366
9.1833 0.4364
9.2000 0.4362
9.2167 0.4360
9.2333 0.4358
9.2500 0.4355
9.2667 0.4353
9.2833 0.4351
9.3000 0.4349
9.3167 0.4347
9.3333 0.4346
9.3500 0.4344
9.3667 0.4342
9.3833 0.4340
9.4000 0.4338
9.4167 0.4336
9.4333 0.4334
9.4500 0.4332
9.4667 0.4330
9.4833 0.4328
9.5000 0.4326
9.5167 0.4325
9.5333 0.4323
9.5500 0.4321
9.5667 0.4319
9.5833 0.4317
9.6000 0.4315
9.6167 0.4314
9.6333 0.4312
9.6500 0.4310
9.6667 0.4308
9.6833 0.4307
9.7000 0.4305
9.7167 0.4303
9.7333 0.4301
9.7500 0.4300
9.7667 0.4298
9.7833 0.4296
9.8000 0.4295
9.8167 0.4293
9.8333 0.4291
9.8500 0.4290
9.8667 0.4288
9.8833 0.4286
9.9000 0.4285
9.9167 0.4283
9.9333 0.4282
9.9500 0.4280
9.9667 0.4278
9.9833 0.4277
10.0000 0.4275
10.0167 0.4274
10.0333 0.4272
10.0500 0.4271
10.0667 0.4269
10.0833 0.4268
10.1000 0.4266
10.1167 0.4265
10.1333 0.4263
10.1500 0.4262
10.1667 0.4260
10.1833 0.4259
10.2000 0.4257
10.2167 0.4256
10.2333 0.4254
10.2500 0.4253
10.2667 0.4251
10.2833 0.4250
10.3000 0.4248
10.3167 0.4247
10.3333 0.4246
10.3500 0.4244
10.3667 0.4243
10.3833 0.4241
10.4000 0.4240
10.4167 0.4239
10.4333 0.4237
10.4500 0.4236
10.4667 0.4235
10.4833 0.4233
10.5000 0.4232
10.5167 0.4231
10.5333 0.4229
10.5500 0.4228
10.5667 0.4227
10.5833 0.4225
10.6000 0.4224
10.6167 0.4223
10.6333 0.4221
10.6500 0.4220
10.6667 0.4219
10.6833 0.4218
10.7000 0.4216
10.7167 0.4215
10.7333 0.4214
10.7500 0.4213
10.7667 0.4211
10.7833 0.4210
10.8000 0.4209
10.8167 0.4208
10.8333 0.4206
10.8500 0.4205
10.8667 0.4204
10.8833 0.4203
10.9000 0.4202
10.9167 0.4200
10.9333 0.4199
10.9500 0.4198
10.9667 0.4197
10.9833 0.4196
11.0000 0.4194
11.0167 0.4193
11.0333 0.4192
11.0500 0.4191
11.0667 0.4190
11.0833 0.4189
11.1000 0.4188
11.1167 0.4186
11.1333 0.4185
11.1500 0.4184
11.1667 0.4183
11.1833 0.4182
11.2000 0.4181
11.2167 0.4180
11.2333 0.4179
11.2500 0.4178
11.2667 0.4177
11.2833 0.4175
11.3000 0.4174
11.3167 0.4173
11.3333 0.4172
11.3500 0.4171
11.3667 0.4170
11.3833 0.4169
11.4000 0.4168
11.4167 0.4167
11.4333 0.4166
11.4500 0.4165
11.4667 0.4164
11.4833 0.4163
11.5000 0.4162
11.5167 0.4161
11.5333 0.4160
11.5500 0.4159
11.5667 0.4158
11.5833 0.4157
11.6000 0.4156
11.6167 0.4155
11.6333 0.4154
11.6500 0.4153
11.6667 0.4152
11.6833 0.4151
11.7000 0.4150
11.7167 0.4149
11.7333 0.4148
11.7500 0.4147
11.7667 0.4146
11.7833 0.4145
11.8000 0.4144
11.8167 0.4143
11.8333 0.4142
11.8500 0.4141
11.8667 0.4140
11.8833 0.4139
11.9000 0.4138
11.9167 0.4137
11.9333 0.4136
11.9500 0.4135
11.9667 0.4135
11.9833 0.4134
12.0000 0.4133
12.0167 0.4132
12.0333 0.4131
12.0500 0.4130
12.0667 0.4129
12.0833 0.4128
12.1000 0.4127
12.1167 0.4126
12.1333 0.4125
12.1500 0.4125
12.1667 0.4124
12.1833 0.4123
12.2000 0.4122
12.2167 0.4121
12.2333 0.4120
12.2500 0.4119
12.2667 0.4118
12.2833 0.4118
12.3000 0.4117
12.3167 0.4116
12.3333 0.4115
12.3500 0.4114
12.3667 0.4113
12.3833 0.4112
12.4000 0.4112
12.4167 0.4111
12.4333 0.4110
12.4500 0.4109
12.4667 0.4108
12.4833 0.4107
12.5000 0.4107
12.5167 0.4106
12.5333 0.4105
12.5500 0.4104
12.5667 0.4103
12.5833 0.4102
12.6000 0.4102
12.6167 0.4101
12.6333 0.4100
12.6500 0.4099
12.6667 0.4098
12.6833 0.4098
12.7000 0.4097
12.7167 0.4096
12.7333 0.4095
12.7500 0.4094
12.7667 0.4094
12.7833 0.4093
12.8000 0.4092
12.8167 0.4091
12.8333 0.4090
12.8500 0.4090
12.8667 0.4089
12.8833 0.4088
12.9000 0.4087
12.9167 0.4086
12.9333 0.4086
12.9500 0.4085
12.9667 0.4084
12.9833 0.4083
13.0000 0.4083
13.0167 0.4082
13.0333 0.4081
13.0500 0.4080
13.0667 0.4080
13.0833 0.4079
13.1000 0.4078
13.1167 0.4077
13.1333 0.4077
13.1500 0.4076
13.1667 0.4075
13.1833 0.4074
13.2000 0.4074
13.2167 0.4073
13.2333 0.4072
13.2500 0.4071
13.2667 0.4071
13.2833 0.4070
13.3000 0.4069
13.3167 0.4068
13.3333 0.4068
13.3500 0.4067
13.3667 0.4066
13.3833 0.4065
13.4000 0.4065
13.4167 0.4064
13.4333 0.4063
13.4500 0.4063
13.4667 0.4062
13.4833 0.4061
13.5000 0.4060
13.5167 0.4060
13.5333 0.4059
13.5500 0.4058
13.5667 0.4058
13.5833 0.4057
13.6000 0.4056
13.6167 0.4055
13.6333 0.4055
13.6500 0.4054
13.6667 0.4053
13.6833 0.4053
13.7000 0.4052
13.7167 0.4051
13.7333 0.4051
13.7500 0.4050
13.7667 0.4049
13.7833 0.4048
13.8000 0.4048
13.8167 0.4047
13.8333 0.4046
13.8500 0.4046
13.8667 0.4045
13.8833 0.4044
13.9000 0.4044
13.9167 0.4043
13.9333 0.4042
13.9500 0.4042
13.9667 0.4041
13.9833 0.4040
14.0000 0.4040
14.0167 0.4039
14.0333 0.4038
14.0500 0.4038
14.0667 0.4037
14.0833 0.4036
14.1000 0.4036
14.1167 0.4035
14.1333 0.4034
14.1500 0.4034
14.1667 0.4033
14.1833 0.4032
14.2000 0.4032
14.2167 0.4031
14.2333 0.4030
14.2500 0.4030
14.2667 0.4029
14.2833 0.4028
14.3000 0.4028
14.3167 0.4027
14.3333 0.4026
14.3500 0.4026
14.3667 0.4025
14.3833 0.4024
14.4000 0.4024
14.4167 0.4023
14.4333 0.4022
14.4500 0.4022
14.4667 0.4021
14.4833 0.4021
14.5000 0.4020
14.5167 0.4019
14.5333 0.4019
14.5500 0.4018
14.5667 0.4017
14.5833 0.4017
14.6000 0.4016
14.6167 0.4015
14.6333 0.4015
14.6500 0.4014
14.6667 0.4014
14.6833 0.4013
14.7000 0.4012
14.7167 0.4012
14.7333 0.4011
14.7500 0.4010
14.7667 0.4010
14.7833 0.4009
14.8000 0.4009
14.8167 0.4008
14.8333 0.4007
14.8500 0.4007
14.8667 0.4006
14.8833 0.4005
14.9000 0.4005
14.9167 0.4004
14.9333 0.4004
14.9500 0.4003
14.9667 0.4002
14.9833 0.4002
15.0000 0.4001
15.0167 0.4000
15.0333 0.4000
15.0500 0.3999
15.0667 0.3999
15.0833 0.3998
15.1000 0.3997
15.1167 0.3997
15.1333 0.3996
15.1500 0.3996
15.1667 0.3995
15.1833 0.3994
15.2000 0.3994
15.2167 0.3993
15.2333 0.3993
15.2500 0.3992
15.2667 0.3991
15.2833 0.3991
15.3000 0.3990
15.3167 0.3990
15.3333 0.3989
15.3500 0.3988
15.3667 0.3988
15.3833 0.3987
15.4000 0.3987
15.4167 0.3986
15.4333 0.3985
15.4500 0.3985
15.4667 0.3984
15.4833 0.3984
15.5000 0.3983
15.5167 0.3982
15.5333 0.3982
15.5500 0.3981
15.5667 0.3981
15.5833 0.3980
15.6000 0.3979
15.6167 0.3979
15.6333 0.3978
15.6500 0.3978
15.6667 0.3977
15.6833 0.3976
15.7000 0.3976
15.7167 0.3975
15.7333 0.3975
15.7500 0.3974
15.7667 0.3974
15.7833 0.3973
15.8000 0.3972
15.8167 0.3972
15.8333 0.3971
15.8500 0.3971
15.8667 0.3970
15.8833 0.3969
15.9000 0.3969
15.9167 0.3968
15.9333 0.3968
15.9500 0.3967
15.9667 0.3967
15.9833 0.3966
16.0000 0.3965
16.0167 0.3965
16.0333 0.3964
16.0500 0.3964
16.0667 0.3963
16.0833 0.3962
16.1000 0.3962
16.1167 0.3961
16.1333 0.3961
16.1500 0.3960
16.1667 0.3960
16.1833 0.3959
16.2000 0.3958
16.2167 0.3958
16.2333 0.3957
16.2500 0.3957
16.2667 0.3956
16.2833 0.3956
16.3000 0.3955
16.3167 0.3954
16.3333 0.3954
16.3500 0.3953
16.3667 0.3953
16.3833 0.3952
16.4000 0.3952
16.4167 0.3951
16.4333 0.3951
16.4500 0.3950
16.4667 0.3949
16.4833 0.3949
16.5000 0.3948
16.5167 0.3948
16.5333 0.3947
16.5500 0.3947
16.5667 0.3946
16.5833 0.3945
16.6000 0.3945
16.6167 0.3944
16.6333 0.3944
16.6500 0.3943
16.6667 0.3943
16.6833 0.3942
16.7000 0.3941
16.7167 0.3941
16.7333 0.3940
16.7500 0.3940
16.7667 0.3939
16.7833 0.3939
16.8000 0.3938
16.8167 0.3938
16.8333 0.3937
16.8500 0.3936
16.8667 0.3936
16.8833 0.3935
16.9000 0.3935
16.9167 0.3934
16.9333 0.3934
16.9500 0.3933
16.9667 0.3933
16.9833 0.3932
17.0000 0.3931
17.0167 0.3931
17.0333 0.3930
17.0500 0.3930
17.0667 0.3929
17.0833 0.3929
17.1000 0.3928
17.1167 0.3928
17.1333 0.3927
17.1500 0.3926
17.1667 0.3926
17.1833 0.3925
17.2000 0.3925
17.2167 0.3924
17.2333 0.3924
17.2500 0.3923
17.2667 0.3923
17.2833 0.3922
17.3000 0.3922
17.3167 0.3921
17.3333 0.3920
17.3500 0.3920
17.3667 0.3919
17.3833 0.3919
17.4000 0.3918
17.4167 0.3918
17.4333 0.3917
17.4500 0.3917
17.4667 0.3916
17.4833 0.3916
17.5000 0.3915
17.5167 0.3914
17.5333 0.3914
17.5500 0.3913
17.5667 0.3913
17.5833 0.3912
17.6000 0.3912
17.6167 0.3911
17.6333 0.3911
17.6500 0.3910
17.6667 0.3910
17.6833 0.3909
17.7000 0.3908
17.7167 0.3908
17.7333 0.3907
17.7500 0.3907
17.7667 0.3906
17.7833 0.3906
17.8000 0.3905
17.8167 0.3905
17.8333 0.3904
17.8500 0.3904
17.8667 0.3903
17.8833 0.3902
17.9000 0.3902
17.9167 0.3901
17.9333 0.3901
17.9500 0.3900
17.9667 0.3900
17.9833 0.3899
18.0000 0.3899
18.0167 0.3898
18.0333 0.3898
18.0500 0.3897
18.0667 0.3897
18.0833 0.3896
18.1000 0.3895
18.1167 0.3895
18.1333 0.3894
18.1500 0.3894
18.1667 0.3893
18.1833 0.3893
18.2000 0.3892
18.2167 0.3892
18.2333 0.3891
18.2500 0.3891
18.2667 0.3890
18.2833 0.3890
18.3000 0.3889
18.3167 0.3889
18.3333 0.3888
18.3500 0.3887
18.3667 0.3887
18.3833 0.3886
18.4000 0.3886
18.4167 0.3885
18.4333 0.3885
18.4500 0.3884
18.4667 0.3884
18.4833 0.3883
18.5000 0.3883
18.5167 0.3882
18.5333 0.3882
18.5500 0.3881
18.5667 0.3881
18.5833 0.3880
18.6000 0.3879
18.6167 0.3879
18.6333 0.3878
18.6500 0.3878
18.6667 0.3877
18.6833 0.3877
18.7000 0.3876
18.7167 0.3876
18.7333 0.3875
18.7500 0.3875
18.7667 0.3874
18.7833 0.3874
18.8000 0.3873
18.8167 0.3873
18.8333 0.3872
18.8500 0.3872
18.8667 0.3871
18.8833 0.3870
18.9000 0.3870
18.9167 0.3869
18.9333 0.3869
18.9500 0.3868
18.9667 0.3868
18.9833 0.3867
19.0000 0.3867
19.0167 0.3866
19.0333 0.3866
19.0500 0.3865
19.0667 0.3865
19.0833 0.3864
19.1000 0.3864
19.1167 0.3863
19.1333 0.3863
19.1500 0.3862
19.1667 0.3862
19.1833 0.3861
19.2000 0.3860
19.2167 0.3860
19.2333 0.3859
19.2500 0.3859
19.2667 0.3858
19.2833 0.3858
19.3000 0.3857
19.3167 0.3857
19.3333 0.3856
19.3500 0.3856
19.3667 0.3855
19.3833 0.3855
19.4000 0.3854
19.4167 0.3854
19.4333 0.3853
19.4500 0.3853
19.4667 0.3852
19.4833 0.3852
19.5000 0.3851
19.5167 0.3851
19.5333 0.3850
19.5500 0.3850
19.5667 0.3849
19.5833 0.3848
19.6000 0.3848
19.6167 0.3847
19.6333 0.3847
19.6500 0.3846
19.6667 0.3846
19.6833 0.3845
19.7000 0.3845
19.7167 0.3844
19.7333 0.3844
19.7500 0.3843
19.7667 0.3843
19.7833 0.3842
19.8000 0.3842
19.8167 0.3841
19.8333 0.3841
19.8500 0.3840
19.8667 0.3840
19.8833 0.3839
19.9000 0.3839
19.9167 0.3838
19.9333 0.3838
19.9500 0.3837
19.9667 0.3837
19.9833 0.3836
20.0000 0.3835
20.0167 0.3835
20.0333 0.3834
20.0500 0.3834
20.0667 0.3833
20.0833 0.3833
20.1000 0.3832
20.1167 0.3832
20.1333 0.3831
20.1500 0.3831
20.1667 0.3830
20.1833 0.3830
20.2000 0.3829
20.2167 0.3829
20.2333 0.3828
20.2500 0.3828
20.2667 0.3827
20.2833 0.3827
20.3000 0.3826
20.3167 0.3826
20.3333 0.3825
20.3500 0.3825
20.3667 0.3824
20.3833 0.3824
20.4000 0.3823
20.4167 0.3823
20.4333 0.3822
20.4500 0.3822
20.4667 0.3821
20.4833 0.3820
20.5000 0.3820
20.5167 0.3819
20.5333 0.3819
20.5500 0.3818
20.5667 0.3818
20.5833 0.3817
20.6000 0.3817
20.6167 0.3816
20.6333 0.3816
20.6500 0.3815
20.6667 0.3815
20.6833 0.3814
20.7000 0.3814
20.7167 0.3813
20.7333 0.3813
20.7500 0.3812
20.7667 0.3812
20.7833 0.3811
20.8000 0.3811
20.8167 0.3810
20.8333 0.3810
20.8500 0.3809
20.8667 0.3809
20.8833 0.3808
20.9000 0.3808
20.9167 0.3807
20.9333 0.3807
20.9500 0.3806
20.9667 0.3806
20.9833 0.3805
21.0000 0.3805
21.0167 0.3804
21.0333 0.3804
21.0500 0.3803
21.0667 0.3803
21.0833 0.3802
21.1000 0.3802
21.1167 0.3801
21.1333 0.3801
21.1500 0.3800
21.1667 0.3799
21.1833 0.3799
21.2000 0.3798
21.2167 0.3798
21.2333 0.3797
21.2500 0.3797
21.2667 0.3796
21.2833 0.3796
21.3000 0.3795
21.3167 0.3795
21.3333 0.3794
21.3500 0.3794
21.3667 0.3793
21.3833 0.3793
21.4000 0.3792
21.4167 0.3792
21.4333 0.3791
21.4500 0.3791
21.4667 0.3790
21.4833 0.3790
21.5000 0.3789
21.5167 0.3789
21.5333 0.3788
21.5500 0.3788
21.5667 0.3787
21.5833 0.3787
21.6000 0.3786
21.6167 0.3786
21.6333 0.3785
21.6500 0.3785
21.6667 0.3784
21.6833 0.3784
21.7000 0.3783
21.7167 0.3783
21.7333 0.3782
21.7500 0.3782
21.7667 0.3781
21.7833 0.3781
21.8000 0.3780
21.8167 0.3780
21.8333 0.3779
21.8500 0.3779
21.8667 0.3778
21.8833 0.3778
21.9000 0.3777
21.9167 0.3777
21.9333 0.3776
21.9500 0.3776
21.9667 0.3775
21.9833 0.3775
22.0000 0.3774
22.0167 0.3774
22.0333 0.3773
22.0500 0.3773
22.0667 0.3772
22.0833 0.3772
22.1000 0.3771
22.1167 0.3771
22.1333 0.3770
22.1500 0.3770
22.1667 0.3769
22.1833 0.3769
22.2000 0.3768
22.2167 0.3768
22.2333 0.3767
22.2500 0.3767
22.2667 0.3766
22.2833 0.3765
22.3000 0.3765
22.3167 0.3764
22.3333 0.3764
22.3500 0.3763
22.3667 0.3763
22.3833 0.3762
22.4000 0.3762
22.4167 0.3761
22.4333 0.3761
22.4500 0.3760
22.4667 0.3760
22.4833 0.3759
22.5000 0.3759
22.5167 0.3758
22.5333 0.3758
22.5500 0.3757
22.5667 0.3757
22.5833 0.3756
22.6000 0.3756
22.6167 0.3755
22.6333 0.3755
22.6500 0.3754
22.6667 0.3754
22.6833 0.3753
22.7000 0.3753
22.7167 0.3752
22.7333 0.3752
22.7500 0.3751
22.7667 0.3751
22.7833 0.3750
22.8000 0.3750
22.8167 0.3749
22.8333 0.3749
