time [s] Activity [arb units]
0.0000 0.0000
0.0167 0.0002
0.0333 0.0003
0.0500 0.0005
0.0667 0.0007
0.0833 0.0008
0.1000 0.0010
0.1167 0.0012
0.1333 0.0013
0.1500 0.0015
0.1667 0.0017
0.1833 0.0018
0.2000 0.0020
0.2167 0.0022
0.2333 0.0023
0.2500 0.0025
0.2667 0.0027
0.2833 0.0028
0.3000 0.0030
0.3167 0.0032
0.3333 0.0033
0.3500 0.0035
0.3667 0.0037
0.3833 0.0038
0.4000 0.0040
0.4167 0.0042
0.4333 0.0043
0.4500 0.0045
0.4667 0.0047
0.4833 0.0048
0.5000 0.0050
0.5167 0.0052
0.5333 0.0053
0.5500 0.0055
0.5667 0.0057
0.5833 0.0058
0.6000 0.0060
0.6167 0.0062
0.6333 0.0063
0.6500 0.0065
0.6667 0.0067
0.6833 0.0068
0.7000 0.0070
0.7167 0.0072
0.7333 0.0073
0.7500 0.0075
0.7667 0.0077
0.7833 0.0078
0.8000 0.0080
0.8167 0.0082
0.8333 0.0083
0.8500 0.0085
0.8667 0.0087
0.8833 0.0088
0.9000 0.0090
0.9167 0.0092
0.9333 0.0093
0.9500 0.0095
0.9667 0.0097
0.9833 0.0098
1.0000 0.0100
1.0167 0.0102
1.0333 0.0103
1.0500 0.0105
1.0667 0.0107
1.0833 0.0108
1.1000 0.0110
1.1167 0.0112
1.1333 0.0113
1.1500 0.0115
1.1667 0.0117
1.1833 0.0118
1.2000 0.0120
1.2167 0.0122
1.2333 0.0123
1.2500 0.0125
1.2667 0.0127
1.2833 0.0128
1.3000 0.0130
1.3167 0.0132
1.3333 0.0133
1.3500 0.0135
1.3667 0.0137
1.3833 0.0138
1.4000 0.0140
1.4167 0.0142
1.4333 0.0143
1.4500 0.0145
1.4667 0.0147
1.4833 0.0148
1.5000 0.0150
1.5167 0.0152
1.5333 0.0153
1.5500 0.0155
1.5667 0.0157
1.5833 0.0158
1.6000 0.0160
1.6167 0.0162
1.6333 0.0163
1.6500 0.0165
1.6667 0.0167
1.6833 0.0168
1.7000 0.0170
1.7167 0.0172
1.7333 0.0173
1.7500 0.0175
1.7667 0.0177
1.7833 0.0178
1.8000 0.0180
1.8167 0.0182
1.8333 0.0183
1.8500 0.0185
1.8667 0.0187
1.8833 0.0188
1.9000 0.0190
1.9167 0.0192
1.9333 0.0193
1.9500 0.0195
1.9667 0.0197
1.9833 0.0198
2.0000 0.0200
2.0167 0.0202
2.0333 0.0203
2.0500 0.0205
2.0667 0.0207
2.0833 0.0208
2.1000 0.0210
2.1167 0.0212
2.1333 0.0213
2.1500 0.0215
2.1667 0.0217
2.1833 0.0218
2.2000 0.0220
2.2167 0.0222
2.2333 0.0223
2.2500 0.0225
2.2667 0.0227
2.2833 0.0228
2.3000 0.0230
2.3167 0.0232
2.3333 0.0233
2.3500 0.0235
2.3667 0.0237
2.3833 0.0238
2.4000 0.0240
2.4167 0.0242
2.4333 0.0243
2.4500 0.0245
2.4667 0.0247
2.4833 0.0248
2.5000 0.0250
2.5167 0.0252
2.5333 0.0253
2.5500 0.0255
2.5667 0.0257
2.5833 0.0258
2.6000 0.0260
2.6167 0.0262
2.6333 0.0263
2.6500 0.0265
2.6667 0.0267
2.6833 0.0268
2.7000 0.0270
2.7167 0.0272
2.7333 0.0273
2.7500 0.0275
2.7667 0.0277
2.7833 0.0278
2.8000 0.0280
2.8167 0.0282
2.8333 0.0283
2.8500 0.0285
2.8667 0.0287
2.8833 0.0288
2.9000 0.0290
2.9167 0.0292
2.9333 0.0293
2.9500 0.0295
2.9667 0.0297
2.9833 0.0298
3.0000 0.0300
3.0167 0.0302
3.0333 0.0303
3.0500 0.0305
3.0667 0.0307
3.0833 0.0308
3.1000 0.0310
3.1167 0.0312
3.1333 0.0313
3.1500 0.0315
3.1667 0.0317
3.1833 0.0318
3.2000 0.0320
3.2167 0.0322
3.2333 0.0323
3.2500 0.0325
3.2667 0.0327
3.2833 0.0328
3.3000 0.0330
3.3167 0.0332
3.3333 0.0333
3.3500 0.0335
3.3667 0.0337
3.3833 0.0338
3.4000 0.0340
3.4167 0.0342
3.4333 0.0343
3.4500 0.0345
3.4667 0.0347
3.4833 0.0348
3.5000 0.0350
3.5167 0.0352
3.5333 0.0353
3.5500 0.0355
3.5667 0.0357
3.5833 0.0358
3.6000 0.0360
3.6167 0.0362
3.6333 0.0363
3.6500 0.0365
3.6667 0.0367
3.6833 0.0368
3.7000 0.0370
3.7167 0.0372
3.7333 0.0373
3.7500 0.0375
3.7667 0.0377
3.7833 0.0378
3.8000 0.0380
3.8167 0.0382
3.8333 0.0383
3.8500 0.0385
3.8667 0.0387
3.8833 0.0388
3.9000 0.0390
3.9167 0.0392
3.9333 0.0393
3.9500 0.0395
3.9667 0.0397
3.9833 0.0398
4.0000 0.0400
4.0167 0.0402
4.0333 0.0403
4.0500 0.0405
4.0667 0.0407
4.0833 0.0408
4.1000 0.0410
4.1167 0.0412
4.1333 0.0413
4.1500 0.0415
4.1667 0.0417
4.1833 0.0418
4.2000 0.0420
4.2167 0.0422
4.2333 0.0423
4.2500 0.0425
4.2667 0.0427
4.2833 0.0428
4.3000 0.0430
4.3167 0.0432
4.3333 0.0433
4.3500 0.0435
4.3667 0.0437
4.3833 0.0438
4.4000 0.0440
4.4167 0.0442
4.4333 0.0443
4.4500 0.0445
4.4667 0.0447
4.4833 0.0448
4.5000 0.0450
4.5167 0.0452
4.5333 0.0453
4.5500 0.0455
4.5667 0.0457
4.5833 0.0458
4.6000 0.0460
4.6167 0.0462
4.6333 0.0463
4.6500 0.0465
4.6667 0.0467
4.6833 0.0468
4.7000 0.0470
4.7167 0.0472
4.7333 0.0473
4.7500 0.0475
4.7667 0.0477
4.7833 0.0478
4.8000 0.0480
4.8167 0.0482
4.8333 0.0483
4.8500 0.0485
4.8667 0.0487
4.8833 0.0488
4.9000 0.0490
4.9167 0.0492
4.9333 0.0493
4.9500 0.0495
4.9667 0.0497
4.9833 0.0498
5.0000 0.0408
5.0167 0.0318
5.0333 0.0228
5.0500 0.0138
5.0667 0.0048
5.0833 -0.0042
5.1000 -0.0132
5.1167 -0.0222
5.1333 -0.0312
5.1500 -0.0402
5.1667 -0.0492
5.1833 -0.0582
5.2000 -0.0672
5.2167 -0.0762
5.2333 -0.0852
5.2500 -0.0942
5.2667 -0.1032
5.2833 -0.1122
5.3000 -0.1212
5.3167 -0.1302
5.3333 -0.1392
5.3500 -0.1482
5.3667 -0.1572
5.3833 -0.1662
5.4000 -0.1752
5.4167 -0.1842
5.4333 -0.1932
5.4500 -0.2022
5.4667 -0.2112
5.4833 -0.2202
5.5000 -0.2102
5.5167 -0.2002
5.5333 -0.1902
5.5500 -0.1802
5.5667 -0.1702
5.5833 -0.1602
5.6000 -0.1502
5.6167 -0.1402
5.6333 -0.1302
5.6500 -0.1202
5.6667 -0.1102
5.6833 -0.1002
5.7000 -0.0902
5.7167 -0.0802
5.7333 -0.0702
5.7500 -0.0602
5.7667 -0.0502
5.7833 -0.0402
5.8000 -0.0302
5.8167 -0.0202
5.8333 -0.0102
5.8500 -0.0002
5.8667 0.0098
5.8833 0.0198
5.9000 0.0298
5.9167 0.0398
5.9333 0.0498
5.9500 0.0598
5.9667 0.0698
5.9833 0.0798
6.0000 0.0708
6.0167 0.0618
6.0333 0.0528
6.0500 0.0438
6.0667 0.0348
6.0833 0.0258
6.1000 0.0168
6.1167 0.0078
6.1333 -0.0012
6.1500 -0.0102
6.1667 -0.0192
6.1833 -0.0282
6.2000 -0.0372
6.2167 -0.0462
6.2333 -0.0552
6.2500 -0.0642
6.2667 -0.0732
6.2833 -0.0822
6.3000 -0.0912
6.3167 -0.1002
6.3333 -0.1092
6.3500 -0.1182
6.3667 -0.1272
6.3833 -0.1362
6.4000 -0.1452
6.4167 -0.1542
6.4333 -0.1632
6.4500 -0.1722
6.4667 -0.1812
6.4833 -0.1902
6.5000 -0.1802
6.5167 -0.1702
6.5333 -0.1602
6.5500 -0.1502
6.5667 -0.1402
6.5833 -0.1302
6.6000 -0.1202
6.6167 -0.1102
6.6333 -0.1002
6.6500 -0.0902
6.6667 -0.0802
6.6833 -0.0702
6.7000 -0.0602
6.7167 -0.0502
6.7333 -0.0402
6.7500 -0.0302
6.7667 -0.0202
6.7833 -0.0102
6.8000 -0.0002
6.8167 0.0098
6.8333 0.0198
6.8500 0.0298
6.8667 0.0398
6.8833 0.0498
6.9000 0.0598
6.9167 0.0698
6.9333 0.0798
6.9500 0.0898
6.9667 0.0998
6.9833 0.1098
7.0000 0.1008
7.0167 0.0918
7.0333 0.0828
7.0500 0.0738
7.0667 0.0648
7.0833 0.0558
7.1000 0.0468
7.1167 0.0378
7.1333 0.0288
7.1500 0.0198
7.1667 0.0108
7.1833 0.0018
7.2000 -0.0072
7.2167 -0.0162
7.2333 -0.0252
7.2500 -0.0342
7.2667 -0.0432
7.2833 -0.0522
7.3000 -0.0612
7.3167 -0.0702
7.3333 -0.0792
7.3500 -0.0882
7.3667 -0.0972
7.3833 -0.1062
7.4000 -0.1152
7.4167 -0.1242
7.4333 -0.1332
7.4500 -0.1422
7.4667 -0.1512
7.4833 -0.1602
7.5000 -0.1502
7.5167 -0.1402
7.5333 -0.1302
7.5500 -0.1202
7.5667 -0.1102
7.5833 -0.1002
7.6000 -0.0902
7.6167 -0.0802
7.6333 -0.0702
7.6500 -0.0602
7.6667 -0.0502
7.6833 -0.0402
7.7000 -0.0302
7.7167 -0.0202
7.7333 -0.0102
7.7500 -0.0002
7.7667 0.0098
7.7833 0.0198
7.8000 0.0298
7.8167 0.0398
7.8333 0.0498
7.8500 0.0598
7.8667 0.0698
7.8833 0.0798
7.9000 0.0898
7.9167 0.0998
7.9333 0.1098
7.9500 0.1198
7.9667 0.1298
7.9833 0.1398
8.0000 0.1308
8.0167 0.1218
8.0333 0.1128
8.0500 0.1038
8.0667 0.0948
8.0833 0.0858
8.1000 0.0768
8.1167 0.0678
8.1333 0.0588
8.1500 0.0498
8.1667 0.0408
8.1833 0.0318
8.2000 0.0228
8.2167 0.0138
8.2333 0.0048
8.2500 -0.0042
8.2667 -0.0132
8.2833 -0.0222
8.3000 -0.0312
8.3167 -0.0402
8.3333 -0.0492
8.3500 -0.0582
8.3667 -0.0672
8.3833 -0.0762
8.4000 -0.0852
8.4167 -0.0942
8.4333 -0.1032
8.4500 -0.1122
8.4667 -0.1212
8.4833 -0.1302
8.5000 -0.1202
8.5167 -0.1102
8.5333 -0.1002
8.5500 -0.0902
8.5667 -0.0802
8.5833 -0.0702
8.6000 -0.0602
8.6167 -0.0502
8.6333 -0.0402
8.6500 -0.0302
8.6667 -0.0202
8.6833 -0.0102
8.7000 -0.0002
8.7167 0.0098
8.7333 0.0198
8.7500 0.0298
8.7667 0.0398
8.7833 0.0498
8.8000 0.0598
8.8167 0.0698
8.8333 0.0798
8.8500 0.0898
8.8667 0.0998
8.8833 0.1098
8.9000 0.1198
8.9167 0.1298
8.9333 0.1398
8.9500 0.1498
8.9667 0.1598
8.9833 0.1698
9.0000 0.1608
9.0167 0.1518
9.0333 0.1428
9.0500 0.1338
9.0667 0.1248
9.0833 0.1158
9.1000 0.1068
9.1167 0.0978
9.1333 0.0888
9.1500 0.0798
9.1667 0.0708
9.1833 0.0618
9.2000 0.0528
9.2167 0.0438
9.2333 0.0348
9.2500 0.0258
9.2667 0.0168
9.2833 0.0078
9.3000 -0.0012
9.3167 -0.0102
9.3333 -0.0192
9.3500 -0.0282
9.3667 -0.0372
9.3833 -0.0462
9.4000 -0.0552
9.4167 -0.0642
9.4333 -0.0732
9.4500 -0.0822
9.4667 -0.0912
9.4833 -0.1002
9.5000 -0.0902
9.5167 -0.0802
9.5333 -0.0702
9.5500 -0.0602
9.5667 -0.0502
9.5833 -0.0402
9.6000 -0.0302
9.6167 -0.0202
9.6333 -0.0102
9.6500 -0.0002
9.6667 0.0098
9.6833 0.0198
9.7000 0.0298
9.7167 0.0398
9.7333 0.0498
9.7500 0.0598
9.7667 0.0698
9.7833 0.0798
9.8000 0.0898
9.8167 0.0998
9.8333 0.1098
9.8500 0.1198
9.8667 0.1298
9.8833 0.1398
9.9000 0.1498
9.9167 0.1598
9.9333 0.1698
9.9500 0.1798
9.9667 0.1898
9.9833 0.1998
10.0000 0.1908
10.0167 0.1818
10.0333 0.1728
10.0500 0.1638
10.0667 0.1548
10.0833 0.1458
10.1000 0.1368
10.1167 0.1278
10.1333 0.1188
10.1500 0.1098
10.1667 0.1008
10.1833 0.0918
10.2000 0.0828
10.2167 0.0738
10.2333 0.0648
10.2500 0.0558
10.2667 0.0468
10.2833 0.0378
10.3000 0.0288
10.3167 0.0198
10.3333 0.0108
10.3500 0.0018
10.3667 -0.0072
10.3833 -0.0162
10.4000 -0.0252
10.4167 -0.0342
10.4333 -0.0432
10.4500 -0.0522
10.4667 -0.0612
10.4833 -0.0702
10.5000 -0.0602
10.5167 -0.0502
10.5333 -0.0402
10.5500 -0.0302
10.5667 -0.0202
10.5833 -0.0102
10.6000 -0.0002
10.6167 0.0098
10.6333 0.0198
10.6500 0.0298
10.6667 0.0398
10.6833 0.0498
10.7000 0.0598
10.7167 0.0698
10.7333 0.0798
10.7500 0.0898
10.7667 0.0998
10.7833 0.1098
10.8000 0.1198
10.8167 0.1298
10.8333 0.1398
10.8500 0.1498
10.8667 0.1598
10.8833 0.1698
10.9000 0.1798
10.9167 0.1898
10.9333 0.1998
10.9500 0.2098
10.9667 0.2198
10.9833 0.2298
11.0000 0.2208
11.0167 0.2118
11.0333 0.2028
11.0500 0.1938
11.0667 0.1848
11.0833 0.1758
11.1000 0.1668
11.1167 0.1578
11.1333 0.1488
11.1500 0.1398
11.1667 0.1308
11.1833 0.1218
11.2000 0.1128
11.2167 0.1038
11.2333 0.0948
11.2500 0.0858
11.2667 0.0768
11.2833 0.0678
11.3000 0.0588
11.3167 0.0498
11.3333 0.0408
11.3500 0.0318
11.3667 0.0228
11.3833 0.0138
11.4000 0.0048
11.4167 -0.0042
11.4333 -0.0132
11.4500 -0.0222
11.4667 -0.0312
11.4833 -0.0402
11.5000 -0.0302
11.5167 -0.0202
11.5333 -0.0102
11.5500 -0.0002
11.5667 0.0098
11.5833 0.0198
11.6000 0.0298
11.6167 0.0398
11.6333 0.0498
11.6500 0.0598
11.6667 0.0698
11.6833 0.0798
11.7000 0.0898
11.7167 0.0998
11.7333 0.1098
11.7500 0.1198
11.7667 0.1298
11.7833 0.1398
11.8000 0.1498
11.8167 0.1598
11.8333 0.1698
11.8500 0.1798
11.8667 0.1898
11.8833 0.1998
11.9000 0.2098
11.9167 0.2198
11.9333 0.2298
11.9500 0.2398
11.9667 0.2498
11.9833 0.2598
12.0000 0.2508
12.0167 0.2418
12.0333 0.2328
12.0500 0.2238
12.0667 0.2148
12.0833 0.2058
12.1000 0.1968
12.1167 0.1878
12.1333 0.1788
12.1500 0.1698
12.1667 0.1608
12.1833 0.1518
12.2000 0.1428
12.2167 0.1338
12.2333 0.1248
12.2500 0.1158
12.2667 0.1068
12.2833 0.0978
12.3000 0.0888
12.3167 0.0798
12.3333 0.0708
12.3500 0.0618
12.3667 0.0528
12.3833 0.0438
12.4000 0.0348
12.4167 0.0258
12.4333 0.0168
12.4500 0.0078
12.4667 -0.0012
12.4833 -0.0102
12.5000 -0.0002
12.5167 0.0098
12.5333 0.0198
12.5500 0.0298
12.5667 0.0398
12.5833 0.0498
12.6000 0.0598
12.6167 0.0698
12.6333 0.0798
12.6500 0.0898
12.6667 0.0998
12.6833 0.1098
12.7000 0.1198
12.7167 0.1298
12.7333 0.1398
12.7500 0.1498
12.7667 0.1598
12.7833 0.1698
12.8000 0.1798
12.8167 0.1898
12.8333 0.1998
12.8500 0.2098
12.8667 0.2198
12.8833 0.2298
12.9000 0.2398
12.9167 0.2498
12.9333 0.2598
12.9500 0.2698
12.9667 0.2798
12.9833 0.2898
13.0000 0.2808
13.0167 0.2718
13.0333 0.2628
13.0500 0.2538
13.0667 0.2448
13.0833 0.2358
13.1000 0.2268
13.1167 0.2178
13.1333 0.2088
13.1500 0.1998
13.1667 0.1908
13.1833 0.1818
13.2000 0.1728
13.2167 0.1638
13.2333 0.1548
13.2500 0.1458
13.2667 0.1368
13.2833 0.1278
13.3000 0.1188
13.3167 0.1098
13.3333 0.1008
13.3500 0.0918
13.3667 0.0828
13.3833 0.0738
13.4000 0.0648
13.4167 0.0558
13.4333 0.0468
13.4500 0.0378
13.4667 0.0288
13.4833 0.0198
13.5000 0.0298
13.5167 0.0398
13.5333 0.0498
13.5500 0.0598
13.5667 0.0698
13.5833 0.0798
13.6000 0.0898
13.6167 0.0998
13.6333 0.1098
13.6500 0.1198
13.6667 0.1298
13.6833 0.1398
13.7000 0.1498
13.7167 0.1598
13.7333 0.1698
13.7500 0.1798
13.7667 0.1898
13.7833 0.1998
13.8000 0.2098
13.8167 0.2198
13.8333 0.2298
13.8500 0.2398
13.8667 0.2498
13.8833 0.2598
13.9000 0.2698
13.9167 0.2798
13.9333 0.2898
13.9500 0.2998
13.9667 0.3098
13.9833 0.3198
14.0000 0.3108
14.0167 0.3018
14.0333 0.2928
14.0500 0.2838
14.0667 0.2748
14.0833 0.2658
14.1000 0.2568
14.1167 0.2478
14.1333 0.2388
14.1500 0.2298
14.1667 0.2208
14.1833 0.2118
14.2000 0.2028
14.2167 0.1938
14.2333 0.1848
14.2500 0.1758
14.2667 0.1668
14.2833 0.1578
14.3000 0.1488
14.3167 0.1398
14.3333 0.1308
14.3500 0.1218
14.3667 0.1128
14.3833 0.1038
14.4000 0.0948
14.4167 0.0858
14.4333 0.0768
14.4500 0.0678
14.4667 0.0588
14.4833 0.0498
14.5000 0.0598
14.5167 0.0698
14.5333 0.0798
14.5500 0.0898
14.5667 0.0998
14.5833 0.1098
14.6000 0.1198
14.6167 0.1298
14.6333 0.1398
14.6500 0.1498
14.6667 0.1598
14.6833 0.1698
14.7000 0.1798
14.7167 0.1898
14.7333 0.1998
14.7500 0.2098
14.7667 0.2198
14.7833 0.2298
14.8000 0.2398
14.8167 0.2498
14.8333 0.2598
14.8500 0.2698
14.8667 0.2798
14.8833 0.2898
14.9000 0.2998
14.9167 0.3098
14.9333 0.3198
14.9500 0.3298
14.9667 0.3398
14.9833 0.3498
15.0000 0.3408
15.0167 0.3318
15.0333 0.3228
15.0500 0.3138
15.0667 0.3048
15.0833 0.2958
15.1000 0.2868
15.1167 0.2778
15.1333 0.2688
15.1500 0.2598
15.1667 0.2508
15.1833 0.2418
15.2000 0.2328
15.2167 0.2238
15.2333 0.2148
15.2500 0.2058
15.2667 0.1968
15.2833 0.1878
15.3000 0.1788
15.3167 0.1698
15.3333 0.1608
15.3500 0.1518
15.3667 0.1428
15.3833 0.1338
15.4000 0.1248
15.4167 0.1158
15.4333 0.1068
15.4500 0.0978
15.4667 0.0888
15.4833 0.0798
15.5000 0.0898
15.5167 0.0998
15.5333 0.1098
15.5500 0.1198
15.5667 0.1298
15.5833 0.1398
15.6000 0.1498
15.6167 0.1598
15.6333 0.1698
15.6500 0.1798
15.6667 0.1898
15.6833 0.1998
15.7000 0.2098
15.7167 0.2198
15.7333 0.2298
15.7500 0.2398
15.7667 0.2498
15.7833 0.2598
15.8000 0.2698
15.8167 0.2798
15.8333 0.2898
15.8500 0.2998
15.8667 0.3098
15.8833 0.3198
15.9000 0.3298
15.9167 0.3398
15.9333 0.3498
15.9500 0.3598
15.9667 0.3698
15.9833 0.3798
16.0000 0.3708
16.0167 0.3618
16.0333 0.3528
16.0500 0.3438
16.0667 0.3348
16.0833 0.3258
16.1000 0.3168
16.1167 0.3078
16.1333 0.2988
16.1500 0.2898
16.1667 0.2808
16.1833 0.2718
16.2000 0.2628
16.2167 0.2538
16.2333 0.2448
16.2500 0.2358
16.2667 0.2268
16.2833 0.2178
16.3000 0.2088
16.3167 0.1998
16.3333 0.1908
16.3500 0.1818
16.3667 0.1728
16.3833 0.1638
16.4000 0.1548
16.4167 0.1458
16.4333 0.1368
16.4500 0.1278
16.4667 0.1188
16.4833 0.1098
16.5000 0.1198
16.5167 0.1298
16.5333 0.1398
16.5500 0.1498
16.5667 0.1598
16.5833 0.1698
16.6000 0.1798
16.6167 0.1898
16.6333 0.1998
16.6500 0.2098
16.6667 0.2198
16.6833 0.2298
16.7000 0.2398
16.7167 0.2498
16.7333 0.2598
16.7500 0.2698
16.7667 0.2798
16.7833 0.2898
16.8000 0.2998
16.8167 0.3098
16.8333 0.3198
16.8500 0.3298
16.8667 0.3398
16.8833 0.3498
16.9000 0.3598
16.9167 0.3698
16.9333 0.3798
16.9500 0.3898
16.9667 0.3998
16.9833 0.4098
17.0000 0.4008
17.0167 0.3918
17.0333 0.3828
17.0500 0.3738
17.0667 0.3648
17.0833 0.3558
17.1000 0.3468
17.1167 0.3378
17.1333 0.3288
17.1500 0.3198
17.1667 0.3108
17.1833 0.3018
17.2000 0.2928
17.2167 0.2838
17.2333 0.2748
17.2500 0.2658
17.2667 0.2568
17.2833 0.2478
17.3000 0.2388
17.3167 0.2298
17.3333 0.2208
17.3500 0.2118
17.3667 0.2028
17.3833 0.1938
17.4000 0.1848
17.4167 0.1758
17.4333 0.1668
17.4500 0.1578
17.4667 0.1488
17.4833 0.1398
17.5000 0.1498
17.5167 0.1598
17.5333 0.1698
17.5500 0.1798
17.5667 0.1898
17.5833 0.1998
17.6000 0.2098
17.6167 0.2198
17.6333 0.2298
17.6500 0.2398
17.6667 0.2498
17.6833 0.2598
17.7000 0.2698
17.7167 0.2798
17.7333 0.2898
17.7500 0.2998
17.7667 0.3098
17.7833 0.3198
17.8000 0.3298
17.8167 0.3398
17.8333 0.3498
17.8500 0.3598
17.8667 0.3698
17.8833 0.3798
17.9000 0.3898
17.9167 0.3998
17.9333 0.4098
17.9500 0.4198
17.9667 0.4298
17.9833 0.4398
18.0000 0.4308
18.0167 0.4218
18.0333 0.4128
18.0500 0.4038
18.0667 0.3948
18.0833 0.3858
18.1000 0.3768
18.1167 0.3678
18.1333 0.3588
18.1500 0.3498
18.1667 0.3408
18.1833 0.3318
18.2000 0.3228
18.2167 0.3138
18.2333 0.3048
18.2500 0.2958
18.2667 0.2868
18.2833 0.2778
18.3000 0.2688
18.3167 0.2598
18.3333 0.2508
18.3500 0.2418
18.3667 0.2328
18.3833 0.2238
18.4000 0.2148
18.4167 0.2058
18.4333 0.1968
18.4500 0.1878
18.4667 0.1788
18.4833 0.1698
18.5000 0.1798
18.5167 0.1898
18.5333 0.1998
18.5500 0.2098
18.5667 0.2198
18.5833 0.2298
18.6000 0.2398
18.6167 0.2498
18.6333 0.2598
18.6500 0.2698
18.6667 0.2798
18.6833 0.2898
18.7000 0.2998
18.7167 0.3098
18.7333 0.3198
18.7500 0.3298
18.7667 0.3398
18.7833 0.3498
18.8000 0.3598
18.8167 0.3698
18.8333 0.3798
18.8500 0.3898
18.8667 0.3998
18.8833 0.4098
18.9000 0.4198
18.9167 0.4298
18.9333 0.4398
18.9500 0.4498
18.9667 0.4598
18.9833 0.4698
19.0000 0.4608
19.0167 0.4518
19.0333 0.4428
19.0500 0.4338
19.0667 0.4248
19.0833 0.4158
19.1000 0.4068
19.1167 0.3978
19.1333 0.3888
19.1500 0.3798
19.1667 0.3708
19.1833 0.3618
19.2000 0.3528
19.2167 0.3438
19.2333 0.3348
19.2500 0.3258
19.2667 0.3168
19.2833 0.3078
19.3000 0.2988
19.3167 0.2898
19.3333 0.2808
19.3500 0.2718
19.3667 0.2628
19.3833 0.2538
19.4000 0.2448
19.4167 0.2358
19.4333 0.2268
19.4500 0.2178
19.4667 0.2088
19.4833 0.1998
19.5000 0.2098
19.5167 0.2198
19.5333 0.2298
19.5500 0.2398
19.5667 0.2498
19.5833 0.2598
19.6000 0.2698
19.6167 0.2798
19.6333 0.2898
19.6500 0.2998
19.6667 0.3098
19.6833 0.3198
19.7000 0.3298
19.7167 0.3398
19.7333 0.3498
19.7500 0.3598
19.7667 0.3698
19.7833 0.3798
19.8000 0.3898
19.8167 0.3998
19.8333 0.4098
19.8500 0.4198
19.8667 0.4298
19.8833 0.4398
19.9000 0.4498
19.9167 0.4598
19.9333 0.4698
19.9500 0.4798
19.9667 0.4898
19.9833 0.4998
20.0000 0.4908
20.0167 0.4818
20.0333 0.4728
20.0500 0.4638
20.0667 0.4548
20.0833 0.4458
20.1000 0.4368
20.1167 0.4278
20.1333 0.4188
20.1500 0.4098
20.1667 0.4008
20.1833 0.3918
20.2000 0.3828
20.2167 0.3738
20.2333 0.3648
20.2500 0.3558
20.2667 0.3468
20.2833 0.3378
20.3000 0.3288
20.3167 0.3198
20.3333 0.3108
20.3500 0.3018
20.3667 0.2928
20.3833 0.2838
20.4000 0.2748
20.4167 0.2658
20.4333 0.2568
20.4500 0.2478
20.4667 0.2388
20.4833 0.2298
20.5000 0.2398
20.5167 0.2498
20.5333 0.2598
20.5500 0.2698
20.5667 0.2798
20.5833 0.2898
20.6000 0.2998
20.6167 0.3098
20.6333 0.3198
20.6500 0.3298
20.6667 0.3398
20.6833 0.3498
20.7000 0.3598
20.7167 0.3698
20.7333 0.3798
20.7500 0.3898
20.7667 0.3998
20.7833 0.4098
20.8000 0.4198
20.8167 0.4298
20.8333 0.4398
20.8500 0.4498
20.8667 0.4598
20.8833 0.4698
20.9000 0.4798
20.9167 0.4898
20.9333 0.4998
20.9500 0.5098
20.9667 0.5198
20.9833 0.5298
21.0000 0.5208
21.0167 0.5118
21.0333 0.5028
21.0500 0.4938
21.0667 0.4848
21.0833 0.4758
21.1000 0.4668
21.1167 0.4578
21.1333 0.4488
21.1500 0.4398
21.1667 0.4308
21.1833 0.4218
21.2000 0.4128
21.2167 0.4038
21.2333 0.3948
21.2500 0.3858
21.2667 0.3768
21.2833 0.3678
21.3000 0.3588
21.3167 0.3498
21.3333 0.3408
21.3500 0.3318
21.3667 0.3228
21.3833 0.3138
21.4000 0.3048
21.4167 0.2958
21.4333 0.2868
21.4500 0.2778
21.4667 0.2688
21.4833 0.2598
21.5000 0.2698
21.5167 0.2798
21.5333 0.2898
21.5500 0.2998
21.5667 0.3098
21.5833 0.3198
21.6000 0.3298
21.6167 0.3398
21.6333 0.3498
21.6500 0.3598
21.6667 0.3698
21.6833 0.3798
21.7000 0.3898
21.7167 0.3998
21.7333 0.4098
21.7500 0.4198
21.7667 0.4298
21.7833 0.4398
21.8000 0.4498
21.8167 0.4598
21.8333 0.4698
21.8500 0.4798
21.8667 0.4898
21.8833 0.4998
21.9000 0.5098
21.9167 0.5198
21.9333 0.5298
21.9500 0.5398
21.9667 0.5498
21.9833 0.5598
22.0000 0.5508
22.0167 0.5418
22.0333 0.5328
22.0500 0.5238
22.0667 0.5148
22.0833 0.5058
22.1000 0.4968
22.1167 0.4878
22.1333 0.4788
22.1500 0.4698
22.1667 0.4608
22.1833 0.4518
22.2000 0.4428
22.2167 0.4338
22.2333 0.4248
22.2500 0.4158
22.2667 0.4068
22.2833 0.3978
22.3000 0.3888
22.3167 0.3798
22.3333 0.3708
22.3500 0.3618
22.3667 0.3528
22.3833 0.3438
22.4000 0.3348
22.4167 0.3258
22.4333 0.3168
22.4500 0.3078
22.4667 0.2988
22.4833 0.2898
22.5000 0.2998
22.5167 0.3098
22.5333 0.3198
22.5500 0.3298
22.5667 0.3398
22.5833 0.3498
22.6000 0.3598
22.6167 0.3698
