time [s] Activity [arb units]
0.0000 0.0932
0.0167 0.0938
0.0333 0.0944
0.0500 0.0950
0.0667 0.0955
0.0833 0.0961
0.1000 0.0967
0.1167 0.0973
0.1333 0.0979
0.1500 0.0985
0.1667 0.0990
0.1833 0.0996
0.2000 0.1002
0.2167 0.1008
0.2333 0.1014
0.2500 0.1019
0.2667 0.1025
0.2833 0.1031
0.3000 0.1037
0.3167 0.1043
0.3333 0.1048
0.3500 0.1054
0.3667 0.1060
0.3833 0.1066
0.4000 0.1071
0.4167 0.1077
0.4333 0.1083
0.4500 0.1089
0.4667 0.1094
0.4833 0.1100
0.5000 0.1106
0.5167 0.1112
0.5333 0.1117
0.5500 0.1123
0.5667 0.1129
0.5833 0.1135
0.6000 0.1140
0.6167 0.1146
0.6333 0.1152
0.6500 0.1157
0.6667 0.1163
0.6833 0.1169
0.7000 0.1175
0.7167 0.1180
0.7333 0.1186
0.7500 0.1192
0.7667 0.1197
0.7833 0.1203
0.8000 0.1209
0.8167 0.1214
0.8333 0.1220
0.8500 0.1226
0.8667 0.1231
0.8833 0.1237
0.9000 0.1243
0.9167 0.1248
0.9333 0.1254
0.9500 0.1260
0.9667 0.1265
0.9833 0.1271
1.0000 0.1277
1.0167 0.1282
1.0333 0.1288
1.0500 0.1293
1.0667 0.1299
1.0833 0.1305
1.1000 0.1310
1.1167 0.1316
1.1333 0.1321
1.1500 0.1327
1.1667 0.1333
1.1833 0.1338
1.2000 0.1344
1.2167 0.1349
1.2333 0.1355
1.2500 0.1361
1.2667 0.1366
1.2833 0.1372
1.3000 0.1377
1.3167 0.1383
1.3333 0.1388
1.3500 0.1394
1.3667 0.1399
1.3833 0.1405
1.4000 0.1411
1.4167 0.1416
1.4333 0.1422
1.4500 0.1427
1.4667 0.1433
1.4833 0.1438
1.5000 0.1444
1.5167 0.1449
1.5333 0.1455
1.5500 0.1460
1.5667 0.1466
1.5833 0.1471
1.6000 0.1477
1.6167 0.1482
1.6333 0.1488
1.6500 0.1493
1.6667 0.1499
1.6833 0.1504
1.7000 0.1510
1.7167 0.1515
1.7333 0.1521
1.7500 0.1526
1.7667 0.1532
1.7833 0.1537
1.8000 0.1543
1.8167 0.1548
1.8333 0.1553
1.8500 0.1559
1.8667 0.1564
1.8833 0.1570
1.9000 0.1575
1.9167 0.1581
1.9333 0.1586
1.9500 0.1591
1.9667 0.1597
1.9833 0.1602
2.0000 0.1608
2.0167 0.1613
2.0333 0.1619
2.0500 0.1624
2.0667 0.1629
2.0833 0.1635
2.1000 0.1640
2.1167 0.1646
2.1333 0.1651
2.1500 0.1656
2.1667 0.1662
2.1833 0.1667
2.2000 0.1672
2.2167 0.1678
2.2333 0.1683
2.2500 0.1689
2.2667 0.1694
2.2833 0.1699
2.3000 0.1705
2.3167 0.1710
2.3333 0.1715
2.3500 0.1721
2.3667 0.1726
2.3833 0.1731
2.4000 0.1737
2.4167 0.1742
2.4333 0.1747
2.4500 0.1753
2.4667 0.1758
2.4833 0.1763
2.5000 0.1769
2.5167 0.1774
2.5333 0.1779
2.5500 0.1784
2.5667 0.1790
2.5833 0.1795
2.6000 0.1800
2.6167 0.1806
2.6333 0.1811
2.6500 0.1816
2.6667 0.1821
2.6833 0.1827
2.7000 0.1832
2.7167 0.1837
2.7333 0.1842
2.7500 0.1848
2.7667 0.1853
2.7833 0.1858
2.8000 0.1863
2.8167 0.1869
2.8333 0.1874
2.8500 0.1879
2.8667 0.1884
2.8833 0.1890
2.9000 0.1895
2.9167 0.1900
2.9333 0.1905
2.9500 0.1911
2.9667 0.1916
2.9833 0.1921
3.0000 0.1926
3.0167 0.1931
3.0333 0.1937
3.0500 0.1942
3.0667 0.1947
3.0833 0.1952
3.1000 0.1957
3.1167 0.1963
3.1333 0.1968
3.1500 0.1973
3.1667 0.1978
3.1833 0.1983
3.2000 0.1988
3.2167 0.1994
3.2333 0.1999
3.2500 0.2004
3.2667 0.2009
3.2833 0.2014
3.3000 0.2019
3.3167 0.2024
3.3333 0.2030
3.3500 0.2035
3.3667 0.2040
3.3833 0.2045
3.4000 0.2050
3.4167 0.2055
3.4333 0.2060
3.4500 0.2065
3.4667 0.2071
3.4833 0.2076
3.5000 0.2081
3.5167 0.2086
3.5333 0.2091
3.5500 0.2096
3.5667 0.2101
3.5833 0.2106
3.6000 0.2111
3.6167 0.2116
3.6333 0.2121
3.6500 0.2127
3.6667 0.2132
3.6833 0.2137
3.7000 0.2142
3.7167 0.2147
3.7333 0.2152
3.7500 0.2157
3.7667 0.2162
3.7833 0.2167
3.8000 0.2172
3.8167 0.2177
3.8333 0.2182
3.8500 0.2187
3.8667 0.2192
3.8833 0.2197
3.9000 0.2202
3.9167 0.2207
3.9333 0.2212
3.9500 0.2217
3.9667 0.2222
3.9833 0.2227
4.0000 0.2232
4.0167 0.2237
4.0333 0.2242
4.0500 0.2247
4.0667 0.2252
4.0833 0.2257
4.1000 0.2262
4.1167 0.2267
4.1333 0.2272
4.1500 0.2277
4.1667 0.2282
4.1833 0.2287
4.2000 0.2292
4.2167 0.2297
4.2333 0.2302
4.2500 0.2307
4.2667 0.2312
4.2833 0.2317
4.3000 0.2322
4.3167 0.2327
4.3333 0.2332
4.3500 0.2337
4.3667 0.2342
4.3833 0.2347
4.4000 0.2351
4.4167 0.2356
4.4333 0.2361
4.4500 0.2366
4.4667 0.2371
4.4833 0.2376
4.5000 0.2381
4.5167 0.2386
4.5333 0.2391
4.5500 0.2396
4.5667 0.2401
4.5833 0.2405
4.6000 0.2410
4.6167 0.2415
4.6333 0.2420
4.6500 0.2425
4.6667 0.2430
4.6833 0.2435
4.7000 0.2440
4.7167 0.2444
4.7333 0.2449
4.7500 0.2454
4.7667 0.2459
4.7833 0.2464
4.8000 0.2469
4.8167 0.2474
4.8333 0.2478
4.8500 0.2483
4.8667 0.2488
4.8833 0.2493
4.9000 0.2498
4.9167 0.2503
4.9333 0.2507
4.9500 0.2512
4.9667 0.2517
4.9833 0.2522
5.0000 0.2527
5.0167 0.2531
5.0333 0.2536
5.0500 0.2541
5.0667 0.2546
5.0833 0.2551
5.1000 0.2555
5.1167 0.2560
5.1333 0.2565
5.1500 0.2570
5.1667 0.2575
5.1833 0.2579
5.2000 0.2584
5.2167 0.2589
5.2333 0.2594
5.2500 0.2598
5.2667 0.2603
5.2833 0.2608
5.3000 0.2613
5.3167 0.2617
5.3333 0.2622
5.3500 0.2627
5.3667 0.2632
5.3833 0.2636
5.4000 0.2641
5.4167 0.2646
5.4333 0.2651
5.4500 0.2655
5.4667 0.2660
5.4833 0.2665
5.5000 0.2669
5.5167 0.2674
5.5333 0.2679
5.5500 0.2684
5.5667 0.2688
5.5833 0.2693
5.6000 0.2698
5.6167 0.2702
5.6333 0.2707
5.6500 0.2712
5.6667 0.2716
5.6833 0.2721
5.7000 0.2726
5.7167 0.2730
5.7333 0.2735
5.7500 0.2740
5.7667 0.2744
5.7833 0.2749
5.8000 0.2754
5.8167 0.2758
5.8333 0.2763
5.8500 0.2768
5.8667 0.2772
5.8833 0.2777
5.9000 0.2782
5.9167 0.2786
5.9333 0.2791
5.9500 0.2796
5.9667 0.2800
5.9833 0.2805
6.0000 0.2810
6.0167 0.2814
6.0333 0.2819
6.0500 0.2823
6.0667 0.2828
6.0833 0.2833
6.1000 0.2837
6.1167 0.2842
6.1333 0.2846
6.1500 0.2851
6.1667 0.2856
6.1833 0.2860
6.2000 0.2865
6.2167 0.2869
6.2333 0.2874
6.2500 0.2878
6.2667 0.2883
6.2833 0.2888
6.3000 0.2892
6.3167 0.2897
6.3333 0.2901
6.3500 0.2906
6.3667 0.2910
6.3833 0.2915
6.4000 0.2920
6.4167 0.2924
6.4333 0.2929
6.4500 0.2933
6.4667 0.2938
6.4833 0.2942
6.5000 0.2947
6.5167 0.2951
6.5333 0.2956
6.5500 0.2960
6.5667 0.2965
6.5833 0.2969
6.6000 0.2974
6.6167 0.2978
6.6333 0.2983
6.6500 0.2987
6.6667 0.2992
6.6833 0.2996
6.7000 0.3001
6.7167 0.3005
6.7333 0.3010
6.7500 0.3014
6.7667 0.3019
6.7833 0.3023
6.8000 0.3028
6.8167 0.3032
6.8333 0.3037
6.8500 0.3041
6.8667 0.3046
6.8833 0.3050
6.9000 0.3055
6.9167 0.3059
6.9333 0.3064
6.9500 0.3068
6.9667 0.3073
6.9833 0.3077
7.0000 0.3081
7.0167 0.3086
7.0333 0.3090
7.0500 0.3095
7.0667 0.3099
7.0833 0.3104
7.1000 0.3108
7.1167 0.3112
7.1333 0.3117
7.1500 0.3121
7.1667 0.3126
7.1833 0.3130
7.2000 0.3135
7.2167 0.3139
7.2333 0.3143
7.2500 0.3148
7.2667 0.3152
7.2833 0.3157
7.3000 0.3161
7.3167 0.3165
7.3333 0.3170
7.3500 0.3174
7.3667 0.3178
7.3833 0.3183
7.4000 0.3187
7.4167 0.3192
7.4333 0.3196
7.4500 0.3200
7.4667 0.3205
7.4833 0.3209
7.5000 0.3213
7.5167 0.3218
7.5333 0.3222
7.5500 0.3226
7.5667 0.3231
7.5833 0.3235
7.6000 0.3239
7.6167 0.3244
7.6333 0.3248
7.6500 0.3252
7.6667 0.3257
7.6833 0.3261
7.7000 0.3265
7.7167 0.3270
7.7333 0.3274
7.7500 0.3278
7.7667 0.3283
7.7833 0.3287
7.8000 0.3291
7.8167 0.3296
7.8333 0.3300
7.8500 0.3304
7.8667 0.3309
7.8833 0.3313
7.9000 0.3317
7.9167 0.3321
7.9333 0.3326
7.9500 0.3330
7.9667 0.3334
7.9833 0.3338
8.0000 0.3343
8.0167 0.3347
8.0333 0.3351
8.0500 0.3356
8.0667 0.3360
8.0833 0.3364
8.1000 0.3368
8.1167 0.3373
8.1333 0.3377
8.1500 0.3381
8.1667 0.3385
8.1833 0.3390
8.2000 0.3394
8.2167 0.3398
8.2333 0.3402
8.2500 0.3406
8.2667 0.3411
8.2833 0.3415
8.3000 0.3419
8.3167 0.3423
8.3333 0.3428
8.3500 0.3432
8.3667 0.3436
8.3833 0.3440
8.4000 0.3444
8.4167 0.3449
8.4333 0.3453
8.4500 0.3457
8.4667 0.3461
8.4833 0.3465
8.5000 0.3470
8.5167 0.3474
8.5333 0.3478
8.5500 0.3482
8.5667 0.3486
8.5833 0.3490
8.6000 0.3495
8.6167 0.3499
8.6333 0.3503
8.6500 0.3507
8.6667 0.3511
8.6833 0.3515
8.7000 0.3520
8.7167 0.3524
8.7333 0.3528
8.7500 0.3532
8.7667 0.3536
8.7833 0.3540
8.8000 0.3545
8.8167 0.3549
8.8333 0.3553
8.8500 0.3557
8.8667 0.3561
8.8833 0.3565
8.9000 0.3569
8.9167 0.3573
8.9333 0.3578
8.9500 0.3582
8.9667 0.3586
8.9833 0.3590
9.0000 0.3594
9.0167 0.3598
9.0333 0.3602
9.0500 0.3606
9.0667 0.3610
9.0833 0.3614
9.1000 0.3619
9.1167 0.3623
9.1333 0.3627
9.1500 0.3631
9.1667 0.3635
9.1833 0.3639
9.2000 0.3643
9.2167 0.3647
9.2333 0.3651
9.2500 0.3655
9.2667 0.3659
9.2833 0.3663
9.3000 0.3667
9.3167 0.3671
9.3333 0.3675
9.3500 0.3680
9.3667 0.3684
9.3833 0.3688
9.4000 0.3692
9.4167 0.3696
9.4333 0.3700
9.4500 0.3704
9.4667 0.3708
9.4833 0.3712
9.5000 0.3716
9.5167 0.3720
9.5333 0.3724
9.5500 0.3728
9.5667 0.3732
9.5833 0.3736
9.6000 0.3740
9.6167 0.3744
9.6333 0.3748
9.6500 0.3752
9.6667 0.3756
9.6833 0.3760
9.7000 0.3764
9.7167 0.3768
9.7333 0.3772
9.7500 0.3776
9.7667 0.3780
9.7833 0.3784
9.8000 0.3788
9.8167 0.3792
9.8333 0.3796
9.8500 0.3800
9.8667 0.3804
9.8833 0.3808
9.9000 0.3812
9.9167 0.3816
9.9333 0.3820
9.9500 0.3823
9.9667 0.3827
9.9833 0.3831
10.0000 0.3835
10.0167 0.3839
10.0333 0.3843
10.0500 0.3847
10.0667 0.3851
10.0833 0.3855
10.1000 0.3859
10.1167 0.3863
10.1333 0.3867
10.1500 0.3871
10.1667 0.3875
10.1833 0.3879
10.2000 0.3882
10.2167 0.3886
10.2333 0.3890
10.2500 0.3894
10.2667 0.3898
10.2833 0.3902
10.3000 0.3906
10.3167 0.3910
10.3333 0.3914
10.3500 0.3918
10.3667 0.3921
10.3833 0.3925
10.4000 0.3929
10.4167 0.3933
10.4333 0.3937
10.4500 0.3941
10.4667 0.3945
10.4833 0.3949
10.5000 0.3952
10.5167 0.3956
10.5333 0.3960
10.5500 0.3964
10.5667 0.3968
10.5833 0.3972
10.6000 0.3976
10.6167 0.3979
10.6333 0.3983
10.6500 0.3987
10.6667 0.3991
10.6833 0.3995
10.7000 0.3999
10.7167 0.4003
10.7333 0.4006
10.7500 0.4010
10.7667 0.4014
10.7833 0.4018
10.8000 0.4022
10.8167 0.4025
10.8333 0.4029
10.8500 0.4033
10.8667 0.4037
10.8833 0.4041
10.9000 0.4045
10.9167 0.4048
10.9333 0.4052
10.9500 0.4056
10.9667 0.4060
10.9833 0.4064
11.0000 0.4067
11.0167 0.4071
11.0333 0.4075
11.0500 0.4079
11.0667 0.4082
11.0833 0.4086
11.1000 0.4090
11.1167 0.4094
11.1333 0.4098
11.1500 0.4101
11.1667 0.4105
11.1833 0.4109
11.2000 0.4113
11.2167 0.4116
11.2333 0.4120
11.2500 0.4124
11.2667 0.4128
11.2833 0.4131
11.3000 0.4135
11.3167 0.4139
11.3333 0.4143
11.3500 0.4146
11.3667 0.4150
11.3833 0.4154
11.4000 0.4158
11.4167 0.4161
11.4333 0.4165
11.4500 0.4169
11.4667 0.4172
11.4833 0.4176
11.5000 0.4180
11.5167 0.4184
11.5333 0.4187
11.5500 0.4191
11.5667 0.4195
11.5833 0.4198
11.6000 0.4202
11.6167 0.4206
11.6333 0.4209
11.6500 0.4213
11.6667 0.4217
11.6833 0.4221
11.7000 0.4224
11.7167 0.4228
11.7333 0.4232
11.7500 0.4235
11.7667 0.4239
11.7833 0.4243
11.8000 0.4246
11.8167 0.4250
11.8333 0.4254
11.8500 0.4257
11.8667 0.4261
11.8833 0.4265
11.9000 0.4268
11.9167 0.4272
11.9333 0.4276
11.9500 0.4279
11.9667 0.4283
11.9833 0.4287
12.0000 0.4290
12.0167 0.4294
12.0333 0.4297
12.0500 0.4301
12.0667 0.4305
12.0833 0.4308
12.1000 0.4312
12.1167 0.4316
12.1333 0.4319
12.1500 0.4323
12.1667 0.4326
12.1833 0.4330
12.2000 0.4334
12.2167 0.4337
12.2333 0.4341
12.2500 0.4345
12.2667 0.4348
12.2833 0.4352
12.3000 0.4355
12.3167 0.4359
12.3333 0.4363
12.3500 0.4366
12.3667 0.4370
12.3833 0.4373
12.4000 0.4377
12.4167 0.4380
12.4333 0.4384
12.4500 0.4388
12.4667 0.4391
12.4833 0.4395
12.5000 0.4398
12.5167 0.4402
12.5333 0.4405
12.5500 0.4409
12.5667 0.4413
12.5833 0.4416
12.6000 0.4420
12.6167 0.4423
12.6333 0.4427
12.6500 0.4430
12.6667 0.4434
12.6833 0.4437
12.7000 0.4441
12.7167 0.4445
12.7333 0.4448
12.7500 0.4452
12.7667 0.4455
12.7833 0.4459
12.8000 0.4462
12.8167 0.4466
12.8333 0.4469
12.8500 0.4473
12.8667 0.4476
12.8833 0.4480
12.9000 0.4483
12.9167 0.4487
12.9333 0.4490
12.9500 0.4494
12.9667 0.4497
12.9833 0.4501
13.0000 0.4504
13.0167 0.4508
13.0333 0.4511
13.0500 0.4515
13.0667 0.4518
13.0833 0.4522
13.1000 0.4525
13.1167 0.4529
13.1333 0.4532
13.1500 0.4536
13.1667 0.4539
13.1833 0.4543
13.2000 0.4546
13.2167 0.4550
13.2333 0.4553
13.2500 0.4557
13.2667 0.4560
13.2833 0.4563
13.3000 0.4567
13.3167 0.4570
13.3333 0.4574
13.3500 0.4577
13.3667 0.4581
13.3833 0.4584
13.4000 0.4588
13.4167 0.4591
13.4333 0.4595
13.4500 0.4598
13.4667 0.4601
13.4833 0.4605
13.5000 0.4608
13.5167 0.4612
13.5333 0.4615
13.5500 0.4619
13.5667 0.4622
13.5833 0.4625
13.6000 0.4629
13.6167 0.4632
13.6333 0.4636
13.6500 0.4639
13.6667 0.4642
13.6833 0.4646
13.7000 0.4649
13.7167 0.4653
13.7333 0.4656
13.7500 0.4659
13.7667 0.4663
13.7833 0.4666
13.8000 0.4670
13.8167 0.4673
13.8333 0.4676
13.8500 0.4680
13.8667 0.4683
13.8833 0.4687
13.9000 0.4690
13.9167 0.4693
13.9333 0.4697
13.9500 0.4700
13.9667 0.4703
13.9833 0.4707
14.0000 0.4710
14.0167 0.4713
14.0333 0.4717
14.0500 0.4720
14.0667 0.4724
14.0833 0.4727
14.1000 0.4730
14.1167 0.4734
14.1333 0.4737
14.1500 0.4740
14.1667 0.4744
14.1833 0.4747
14.2000 0.4750
14.2167 0.4754
14.2333 0.4757
14.2500 0.4760
14.2667 0.4764
14.2833 0.4767
14.3000 0.4770
14.3167 0.4774
14.3333 0.4777
14.3500 0.4780
14.3667 0.4784
14.3833 0.4787
14.4000 0.4790
14.4167 0.4793
14.4333 0.4797
14.4500 0.4800
14.4667 0.4803
14.4833 0.4807
14.5000 0.4810
14.5167 0.4813
14.5333 0.4817
14.5500 0.4820
14.5667 0.4823
14.5833 0.4826
14.6000 0.4830
14.6167 0.4833
14.6333 0.4836
14.6500 0.4839
14.6667 0.4843
14.6833 0.4846
14.7000 0.4849
14.7167 0.4853
14.7333 0.4856
14.7500 0.4859
14.7667 0.4862
14.7833 0.4866
14.8000 0.4869
14.8167 0.4872
14.8333 0.4875
14.8500 0.4879
14.8667 0.4882
14.8833 0.4885
14.9000 0.4888
14.9167 0.4892
14.9333 0.4895
14.9500 0.4898
14.9667 0.4901
14.9833 0.4905
15.0000 0.4908
15.0167 0.4911
15.0333 0.4914
15.0500 0.4917
15.0667 0.4921
15.0833 0.4924
15.1000 0.4927
15.1167 0.4930
15.1333 0.4934
15.1500 0.4937
15.1667 0.4940
15.1833 0.4943
15.2000 0.4946
15.2167 0.4950
15.2333 0.4953
15.2500 0.4956
15.2667 0.4959
15.2833 0.4962
15.3000 0.4966
15.3167 0.4969
15.3333 0.4972
15.3500 0.4975
15.3667 0.4978
15.3833 0.4981
15.4000 0.4985
15.4167 0.4988
15.4333 0.4991
15.4500 0.4994
15.4667 0.4997
15.4833 0.5001
15.5000 0.5004
15.5167 0.5007
15.5333 0.5010
15.5500 0.5013
15.5667 0.5016
15.5833 0.5019
15.6000 0.5023
15.6167 0.5026
15.6333 0.5029
15.6500 0.5032
15.6667 0.5035
15.6833 0.5038
15.7000 0.5042
15.7167 0.5045
15.7333 0.5048
15.7500 0.5051
15.7667 0.5054
15.7833 0.5057
15.8000 0.5060
15.8167 0.5063
15.8333 0.5067
15.8500 0.5070
15.8667 0.5073
15.8833 0.5076
15.9000 0.5079
15.9167 0.5082
15.9333 0.5085
15.9500 0.5088
15.9667 0.5091
15.9833 0.5095
16.0000 0.5098
16.0167 0.5101
16.0333 0.5104
16.0500 0.5107
16.0667 0.5110
16.0833 0.5113
16.1000 0.5116
16.1167 0.5119
16.1333 0.5122
16.1500 0.5125
16.1667 0.5129
16.1833 0.5132
16.2000 0.5135
16.2167 0.5138
16.2333 0.5141
16.2500 0.5144
16.2667 0.5147
16.2833 0.5150
16.3000 0.5153
16.3167 0.5156
16.3333 0.5159
16.3500 0.5162
16.3667 0.5165
16.3833 0.5168
16.4000 0.5172
16.4167 0.5175
16.4333 0.5178
16.4500 0.5181
16.4667 0.5184
16.4833 0.5187
16.5000 0.5190
16.5167 0.5193
16.5333 0.5196
16.5500 0.5199
16.5667 0.5202
16.5833 0.5205
16.6000 0.5208
16.6167 0.5211
16.6333 0.5214
16.6500 0.5217
16.6667 0.5220
16.6833 0.5223
16.7000 0.5226
16.7167 0.5229
16.7333 0.5232
16.7500 0.5235
16.7667 0.5238
16.7833 0.5241
16.8000 0.5244
16.8167 0.5247
16.8333 0.5250
16.8500 0.5253
16.8667 0.5256
16.8833 0.5259
16.9000 0.5262
16.9167 0.5265
16.9333 0.5268
16.9500 0.5271
16.9667 0.5274
16.9833 0.5277
17.0000 0.5280
17.0167 0.5283
17.0333 0.5286
17.0500 0.5289
17.0667 0.5292
17.0833 0.5295
17.1000 0.5298
17.1167 0.5301
17.1333 0.5304
17.1500 0.5307
17.1667 0.5310
17.1833 0.5313
17.2000 0.5316
17.2167 0.5319
17.2333 0.5322
17.2500 0.5325
17.2667 0.5327
17.2833 0.5330
17.3000 0.5333
17.3167 0.5336
17.3333 0.5339
17.3500 0.5342
17.3667 0.5345
17.3833 0.5348
17.4000 0.5351
17.4167 0.5354
17.4333 0.5357
17.4500 0.5360
17.4667 0.5363
17.4833 0.5366
17.5000 0.5369
17.5167 0.5371
17.5333 0.5374
17.5500 0.5377
17.5667 0.5380
17.5833 0.5383
17.6000 0.5386
17.6167 0.5389
17.6333 0.5392
17.6500 0.5395
17.6667 0.5398
17.6833 0.5401
17.7000 0.5403
17.7167 0.5406
17.7333 0.5409
17.7500 0.5412
17.7667 0.5415
17.7833 0.5418
17.8000 0.5421
17.8167 0.5424
17.8333 0.5427
17.8500 0.5429
17.8667 0.5432
17.8833 0.5435
17.9000 0.5438
17.9167 0.5441
17.9333 0.5444
17.9500 0.5447
17.9667 0.5450
17.9833 0.5452
18.0000 0.5455
18.0167 0.5458
18.0333 0.5461
18.0500 0.5464
18.0667 0.5467
18.0833 0.5470
18.1000 0.5472
18.1167 0.5475
18.1333 0.5478
18.1500 0.5481
18.1667 0.5484
18.1833 0.5487
18.2000 0.5489
18.2167 0.5492
18.2333 0.5495
18.2500 0.5498
18.2667 0.5501
18.2833 0.5504
18.3000 0.5506
18.3167 0.5509
18.3333 0.5512
18.3500 0.5515
18.3667 0.5518
18.3833 0.5521
18.4000 0.5523
18.4167 0.5526
18.4333 0.5529
18.4500 0.5532
18.4667 0.5535
18.4833 0.5537
18.5000 0.5540
18.5167 0.5543
18.5333 0.5546
18.5500 0.5549
18.5667 0.5551
18.5833 0.5554
18.6000 0.5557
18.6167 0.5560
18.6333 0.5563
18.6500 0.5565
18.6667 0.5568
18.6833 0.5571
18.7000 0.5574
18.7167 0.5576
18.7333 0.5579
18.7500 0.5582
18.7667 0.5585
18.7833 0.5588
18.8000 0.5590
18.8167 0.5593
18.8333 0.5596
18.8500 0.5599
18.8667 0.5601
18.8833 0.5604
18.9000 0.5607
18.9167 0.5610
18.9333 0.5612
18.9500 0.5615
18.9667 0.5618
18.9833 0.5621
19.0000 0.5623
19.0167 0.5626
19.0333 0.5629
19.0500 0.5632
19.0667 0.5634
19.0833 0.5637
19.1000 0.5640
19.1167 0.5643
19.1333 0.5645
19.1500 0.5648
19.1667 0.5651
19.1833 0.5654
19.2000 0.5656
19.2167 0.5659
19.2333 0.5662
19.2500 0.5664
19.2667 0.5667
19.2833 0.5670
19.3000 0.5673
19.3167 0.5675
19.3333 0.5678
19.3500 0.5681
19.3667 0.5683
19.3833 0.5686
19.4000 0.5689
19.4167 0.5692
19.4333 0.5694
19.4500 0.5697
19.4667 0.5700
19.4833 0.5702
19.5000 0.5705
19.5167 0.5708
19.5333 0.5710
19.5500 0.5713
19.5667 0.5716
19.5833 0.5719
19.6000 0.5721
19.6167 0.5724
19.6333 0.5727
19.6500 0.5729
19.6667 0.5732
19.6833 0.5735
19.7000 0.5737
19.7167 0.5740
19.7333 0.5743
19.7500 0.5745
19.7667 0.5748
19.7833 0.5751
19.8000 0.5753
19.8167 0.5756
19.8333 0.5759
19.8500 0.5761
19.8667 0.5764
19.8833 0.5767
19.9000 0.5769
19.9167 0.5772
19.9333 0.5774
19.9500 0.5777
19.9667 0.5780
19.9833 0.5782
20.0000 0.5785
20.0167 0.5788
20.0333 0.5790
20.0500 0.5793
20.0667 0.5796
20.0833 0.5798
20.1000 0.5801
20.1167 0.5803
20.1333 0.5806
20.1500 0.5809
20.1667 0.5811
20.1833 0.5814
20.2000 0.5817
20.2167 0.5819
20.2333 0.5822
20.2500 0.5824
20.2667 0.5827
20.2833 0.5830
20.3000 0.5832
20.3167 0.5835
20.3333 0.5837
20.3500 0.5840
20.3667 0.5843
20.3833 0.5845
20.4000 0.5848
20.4167 0.5850
20.4333 0.5853
20.4500 0.5856
20.4667 0.5858
20.4833 0.5861
20.5000 0.5863
20.5167 0.5866
20.5333 0.5869
20.5500 0.5871
20.5667 0.5874
20.5833 0.5876
20.6000 0.5879
20.6167 0.5881
20.6333 0.5884
20.6500 0.5887
20.6667 0.5889
20.6833 0.5892
20.7000 0.5894
20.7167 0.5897
20.7333 0.5899
20.7500 0.5902
20.7667 0.5905
20.7833 0.5907
20.8000 0.5910
20.8167 0.5912
20.8333 0.5915
20.8500 0.5917
20.8667 0.5920
20.8833 0.5922
20.9000 0.5925
20.9167 0.5927
20.9333 0.5930
20.9500 0.5933
20.9667 0.5935
20.9833 0.5938
21.0000 0.5940
21.0167 0.5943
21.0333 0.5945
21.0500 0.5948
21.0667 0.5950
21.0833 0.5953
21.1000 0.5955
21.1167 0.5958
21.1333 0.5960
21.1500 0.5963
21.1667 0.5965
21.1833 0.5968
21.2000 0.5970
21.2167 0.5973
21.2333 0.5975
21.2500 0.5978
21.2667 0.5980
21.2833 0.5983
21.3000 0.5985
21.3167 0.5988
21.3333 0.5990
21.3500 0.5993
21.3667 0.5995
21.3833 0.5998
21.4000 0.6000
21.4167 0.6003
21.4333 0.6005
21.4500 0.6008
21.4667 0.6010
21.4833 0.6013
21.5000 0.6015
21.5167 0.6018
21.5333 0.6020
21.5500 0.6023
21.5667 0.6025
21.5833 0.6028
21.6000 0.6030
21.6167 0.6033
21.6333 0.6035
21.6500 0.6038
21.6667 0.6040
21.6833 0.6043
21.7000 0.6045
21.7167 0.6047
21.7333 0.6050
21.7500 0.6052
21.7667 0.6055
21.7833 0.6057
21.8000 0.6060
21.8167 0.6062
21.8333 0.6065
21.8500 0.6067
21.8667 0.6070
21.8833 0.6072
21.9000 0.6074
21.9167 0.6077
21.9333 0.6079
21.9500 0.6082
21.9667 0.6084
21.9833 0.6087
22.0000 0.6089
22.0167 0.6091
22.0333 0.6094
22.0500 0.6096
22.0667 0.6099
22.0833 0.6101
22.1000 0.6104
22.1167 0.6106
22.1333 0.6108
22.1500 0.6111
22.1667 0.6113
22.1833 0.6116
22.2000 0.6118
22.2167 0.6121
22.2333 0.6123
22.2500 0.6125
22.2667 0.6128
22.2833 0.6130
22.3000 0.6133
22.3167 0.6135
22.3333 0.6137
22.3500 0.6140
22.3667 0.6142
22.3833 0.6145
22.4000 0.6147
22.4167 0.6149
22.4333 0.6152
22.4500 0.6154
22.4667 0.6157
22.4833 0.6159
22.5000 0.6161
22.5167 0.6164
22.5333 0.6166
22.5500 0.6168
22.5667 0.6171
22.5833 0.6173
22.6000 0.6176
22.6167 0.6178
22.6333 0.6180
22.6500 0.6183
22.6667 0.6185
22.6833 0.6187
22.7000 0.6190
22.7167 0.6192
22.7333 0.6194
22.7500 0.6197
22.7667 0.6199
22.7833 0.6202
22.8000 0.6204
22.8167 0.6206
22.8333 0.6209
