time [s] Activity [arb units]
0.0000 0.0000
0.0167 0.0300
0.0333 0.0450
0.0500 0.0600
0.0667 0.0750
0.0833 0.0900
0.1000 0.1050
0.1167 0.1200
0.1333 0.1350
0.1500 0.1350
0.1667 0.1337
0.1833 0.1290
0.2000 0.1212
0.2167 0.1109
0.2333 0.0982
0.2500 0.0836
0.2667 0.0672
0.2833 0.0494
0.3000 0.0303
0.3167 0.0453
0.3333 0.0603
0.3500 0.0753
0.3667 0.0903
0.3833 0.1053
0.4000 0.1203
0.4167 0.1353
0.4333 0.1503
0.4500 0.1653
0.4667 0.1803
0.4833 0.1803
0.5000 0.1790
0.5167 0.1743
0.5333 0.1665
0.5500 0.1562
0.5667 0.1435
0.5833 0.1289
0.6000 0.1125
0.6167 0.0947
0.6333 0.0756
0.6500 0.0906
0.6667 0.1056
0.6833 0.1206
0.7000 0.1356
0.7167 0.1506
0.7333 0.1656
0.7500 0.1806
0.7667 0.1956
0.7833 0.2106
0.8000 0.2256
0.8167 0.2256
0.8333 0.2243
0.8500 0.2195
0.8667 0.2118
0.8833 0.2015
0.9000 0.1888
0.9167 0.1742
0.9333 0.1578
0.9500 0.1400
0.9667 0.1209
0.9833 0.1359
1.0000 0.1509
1.0167 0.1659
1.0333 0.1809
1.0500 0.1959
1.0667 0.2109
1.0833 0.2259
1.1000 0.2409
1.1167 0.2559
1.1333 0.2709
1.1500 0.2709
1.1667 0.2696
1.1833 0.2648
1.2000 0.2571
1.2167 0.2468
1.2333 0.2341
1.2500 0.2195
1.2667 0.2031
1.2833 0.1853
1.3000 0.1662
1.3167 0.1812
1.3333 0.1962
1.3500 0.2112
1.3667 0.2262
1.3833 0.2412
1.4000 0.2562
1.4167 0.2712
1.4333 0.2862
1.4500 0.3012
1.4667 0.3162
1.4833 0.3162
1.5000 0.3149
1.5167 0.3101
1.5333 0.3024
1.5500 0.2921
1.5667 0.2794
1.5833 0.2648
1.6000 0.2484
1.6167 0.2306
1.6333 0.2115
1.6500 0.2265
1.6667 0.2415
1.6833 0.2565
1.7000 0.2715
1.7167 0.2865
1.7333 0.3015
1.7500 0.3165
1.7667 0.3315
1.7833 0.3465
1.8000 0.3615
1.8167 0.3615
1.8333 0.3602
1.8500 0.3554
1.8667 0.3477
1.8833 0.3374
1.9000 0.3247
1.9167 0.3101
1.9333 0.2937
1.9500 0.2759
1.9667 0.2568
1.9833 0.2718
2.0000 0.2868
2.0167 0.3018
2.0333 0.3168
2.0500 0.3318
2.0667 0.3468
2.0833 0.3618
2.1000 0.3768
2.1167 0.3918
2.1333 0.4068
2.1500 0.4068
2.1667 0.4054
2.1833 0.4007
2.2000 0.3930
2.2167 0.3827
2.2333 0.3700
2.2500 0.3554
2.2667 0.3390
2.2833 0.3212
2.3000 0.3021
2.3167 0.3171
2.3333 0.3321
2.3500 0.3471
2.3667 0.3621
2.3833 0.3771
2.4000 0.3921
2.4167 0.4071
2.4333 0.4221
2.4500 0.4371
2.4667 0.4521
2.4833 0.4521
2.5000 0.4507
2.5167 0.4460
2.5333 0.4383
2.5500 0.4280
2.5667 0.4153
2.5833 0.4007
2.6000 0.3843
2.6167 0.3665
2.6333 0.3474
2.6500 0.3624
2.6667 0.3774
2.6833 0.3924
2.7000 0.4074
2.7167 0.4224
2.7333 0.4374
2.7500 0.4524
2.7667 0.4674
2.7833 0.4824
2.8000 0.4974
2.8167 0.4974
2.8333 0.4960
2.8500 0.4913
2.8667 0.4836
2.8833 0.4732
2.9000 0.4606
2.9167 0.4460
2.9333 0.4296
2.9500 0.4118
2.9667 0.3927
2.9833 0.4077
3.0000 0.4227
3.0167 0.4377
3.0333 0.4527
3.0500 0.4677
3.0667 0.4827
3.0833 0.4977
3.1000 0.5127
3.1167 0.5277
3.1333 0.5427
3.1500 0.5427
3.1667 0.5413
3.1833 0.5366
3.2000 0.5289
3.2167 0.5185
3.2333 0.5059
3.2500 0.4913
3.2667 0.4749
3.2833 0.4570
3.3000 0.4379
3.3167 0.4529
3.3333 0.4679
3.3500 0.4829
3.3667 0.4979
3.3833 0.5129
3.4000 0.5279
3.4167 0.5429
3.4333 0.5579
3.4500 0.5729
3.4667 0.5879
3.4833 0.5879
3.5000 0.5866
3.5167 0.5819
3.5333 0.5742
3.5500 0.5638
3.5667 0.5512
3.5833 0.5366
3.6000 0.5202
3.6167 0.5023
3.6333 0.4832
3.6500 0.4982
3.6667 0.5132
3.6833 0.5282
3.7000 0.5432
3.7167 0.5582
3.7333 0.5732
3.7500 0.5882
3.7667 0.6032
3.7833 0.6182
3.8000 0.6332
3.8167 0.6332
3.8333 0.6319
3.8500 0.6272
3.8667 0.6195
3.8833 0.6091
3.9000 0.5965
3.9167 0.5818
3.9333 0.5655
3.9500 0.5476
3.9667 0.5285
3.9833 0.5435
4.0000 0.5585
4.0167 0.5735
4.0333 0.5885
4.0500 0.6035
4.0667 0.6185
4.0833 0.6335
4.1000 0.6485
4.1167 0.6635
4.1333 0.6785
4.1500 0.6785
4.1667 0.6772
4.1833 0.6725
4.2000 0.6648
4.2167 0.6544
4.2333 0.6418
4.2500 0.6271
4.2667 0.6108
4.2833 0.5929
4.3000 0.5738
4.3167 0.5888
4.3333 0.6038
4.3500 0.6188
4.3667 0.6338
4.3833 0.6488
4.4000 0.6638
4.4167 0.6788
4.4333 0.6938
4.4500 0.7088
4.4667 0.7238
4.4833 0.7238
4.5000 0.7225
4.5167 0.7178
4.5333 0.7101
4.5500 0.6997
4.5667 0.6871
4.5833 0.6724
4.6000 0.6561
4.6167 0.6382
4.6333 0.6191
4.6500 0.6341
4.6667 0.6491
4.6833 0.6641
4.7000 0.6791
4.7167 0.6941
4.7333 0.7091
4.7500 0.7241
4.7667 0.7391
4.7833 0.7541
4.8000 0.7691
4.8167 0.7691
4.8333 0.7678
4.8500 0.7631
4.8667 0.7554
4.8833 0.7450
4.9000 0.7324
4.9167 0.7177
4.9333 0.7014
4.9500 0.6835
4.9667 0.6644
4.9833 0.9166
5.0000 0.9171
5.0167 0.9176
5.0333 0.9180
5.0500 0.9185
5.0667 0.9190
5.0833 0.9195
5.1000 0.9200
5.1167 0.9204
5.1333 0.9209
5.1500 0.9214
5.1667 0.9219
5.1833 0.9223
5.2000 0.9228
5.2167 0.9233
5.2333 0.9238
5.2500 0.9243
5.2667 0.9247
5.2833 0.9252
5.3000 0.9257
5.3167 0.9262
5.3333 0.9266
5.3500 0.9271
5.3667 0.9276
5.3833 0.9281
5.4000 0.9285
5.4167 0.9290
5.4333 0.9295
5.4500 0.9299
5.4667 0.9304
5.4833 0.9309
5.5000 0.9314
5.5167 0.9318
5.5333 0.9323
5.5500 0.9328
5.5667 0.9332
5.5833 0.9337
5.6000 0.9342
5.6167 0.9347
5.6333 0.9351
5.6500 0.9356
5.6667 0.9361
5.6833 0.9365
5.7000 0.9370
5.7167 0.9375
5.7333 0.9379
5.7500 0.9384
5.7667 0.9389
5.7833 0.9393
5.8000 0.9398
5.8167 0.9403
5.8333 0.9407
5.8500 0.9412
5.8667 0.9417
5.8833 0.9421
5.9000 0.9426
5.9167 0.9431
5.9333 0.9435
5.9500 0.9440
5.9667 0.9444
5.9833 0.9449
6.0000 0.9454
6.0167 0.9458
6.0333 0.9463
6.0500 0.9468
6.0667 0.9472
6.0833 0.9477
6.1000 0.9481
6.1167 0.9486
6.1333 0.9491
6.1500 0.9495
6.1667 0.9500
6.1833 0.9504
6.2000 0.9509
6.2167 0.9514
6.2333 0.9518
6.2500 0.9523
6.2667 0.9527
6.2833 0.9532
6.3000 0.9536
6.3167 0.9541
6.3333 0.9546
6.3500 0.9550
6.3667 0.9555
6.3833 0.9559
6.4000 0.9564
6.4167 0.9568
6.4333 0.9573
6.4500 0.9577
6.4667 0.9582
6.4833 0.9586
6.5000 0.9591
6.5167 0.9596
6.5333 0.9600
6.5500 0.9605
6.5667 0.9609
6.5833 0.9614
6.6000 0.9618
6.6167 0.9623
6.6333 0.9627
6.6500 0.9632
6.6667 0.9636
6.6833 0.9641
6.7000 0.9645
6.7167 0.9650
6.7333 0.9654
6.7500 0.9659
6.7667 0.9663
6.7833 0.9668
6.8000 0.9672
6.8167 0.9677
6.8333 0.9681
6.8500 0.9685
6.8667 0.9690
6.8833 0.9694
6.9000 0.9699
6.9167 0.9703
6.9333 0.9708
6.9500 0.9712
6.9667 0.9717
6.9833 0.9721
7.0000 0.9726
7.0167 0.9730
7.0333 0.9734
7.0500 0.9739
7.0667 0.9743
7.0833 0.9748
7.1000 0.9752
7.1167 0.9757
7.1333 0.9761
7.1500 0.9765
7.1667 0.9770
7.1833 0.9774
7.2000 0.9779
7.2167 0.9783
7.2333 0.9787
7.2500 0.9792
7.2667 0.9796
7.2833 0.9801
7.3000 0.9805
7.3167 0.9809
7.3333 0.9814
7.3500 0.9818
7.3667 0.9823
7.3833 0.9827
7.4000 0.9831
7.4167 0.9836
7.4333 0.9840
7.4500 0.9844
7.4667 0.9849
7.4833 0.9853
7.5000 0.9858
7.5167 0.9862
7.5333 0.9866
7.5500 0.9871
7.5667 0.9875
7.5833 0.9879
7.6000 0.9884
7.6167 0.9888
7.6333 0.9892
7.6500 0.9897
7.6667 0.9901
7.6833 0.9905
7.7000 0.9910
7.7167 0.9914
7.7333 0.9918
7.7500 0.9923
7.7667 0.9927
7.7833 0.9931
7.8000 0.9935
7.8167 0.9940
7.8333 0.9944
7.8500 0.9948
7.8667 0.9953
7.8833 0.9957
7.9000 0.9961
7.9167 0.9966
7.9333 0.9970
7.9500 0.9974
7.9667 0.9978
7.9833 0.9983
8.0000 0.9987
8.0167 0.9991
8.0333 0.9995
8.0500 1.0000
8.0667 1.0004
8.0833 1.0008
8.1000 1.0013
8.1167 1.0017
8.1333 1.0021
8.1500 1.0025
8.1667 1.0029
8.1833 1.0034
8.2000 1.0038
8.2167 1.0042
8.2333 1.0046
8.2500 1.0051
8.2667 1.0055
8.2833 1.0059
8.3000 1.0063
8.3167 1.0068
8.3333 1.0072
8.3500 1.0076
8.3667 1.0080
8.3833 1.0084
8.4000 1.0089
8.4167 1.0093
8.4333 1.0097
8.4500 1.0101
8.4667 1.0105
8.4833 1.0110
8.5000 1.0114
8.5167 1.0118
8.5333 1.0122
8.5500 1.0126
8.5667 1.0130
8.5833 1.0135
8.6000 1.0139
8.6167 1.0143
8.6333 1.0147
8.6500 1.0151
8.6667 1.0155
8.6833 1.0160
8.7000 1.0164
8.7167 1.0168
8.7333 1.0172
8.7500 1.0176
8.7667 1.0180
8.7833 1.0185
8.8000 1.0189
8.8167 1.0193
8.8333 1.0197
8.8500 1.0201
8.8667 1.0205
8.8833 1.0209
8.9000 1.0213
8.9167 1.0218
8.9333 1.0222
8.9500 1.0226
8.9667 1.0230
8.9833 1.0234
9.0000 1.0238
9.0167 1.0242
9.0333 1.0246
9.0500 1.0250
9.0667 1.0255
9.0833 1.0259
9.1000 1.0263
9.1167 1.0267
9.1333 1.0271
9.1500 1.0275
9.1667 1.0279
9.1833 1.0283
9.2000 1.0287
9.2167 1.0291
9.2333 1.0295
9.2500 1.0299
9.2667 1.0303
9.2833 1.0307
9.3000 1.0312
9.3167 1.0316
9.3333 1.0320
9.3500 1.0324
9.3667 1.0328
9.3833 1.0332
9.4000 1.0336
9.4167 1.0340
9.4333 1.0344
9.4500 1.0348
9.4667 1.0352
9.4833 1.0356
9.5000 1.0360
9.5167 1.0364
9.5333 1.0368
9.5500 1.0372
9.5667 1.0376
9.5833 1.0380
9.6000 1.0384
9.6167 1.0388
9.6333 1.0392
9.6500 1.0396
9.6667 1.0400
9.6833 1.0404
9.7000 1.0408
9.7167 1.0412
9.7333 1.0416
9.7500 1.0420
9.7667 1.0424
9.7833 1.0428
9.8000 1.0432
9.8167 1.0436
9.8333 1.0440
9.8500 1.0444
9.8667 1.0448
9.8833 1.0452
9.9000 1.0456
9.9167 1.0460
9.9333 1.0464
9.9500 1.0468
9.9667 1.0472
9.9833 1.0476
10.0000 1.0479
10.0167 1.0483
10.0333 1.0487
10.0500 1.0491
10.0667 1.0495
10.0833 1.0499
10.1000 1.0503
10.1167 1.0507
10.1333 1.0511
10.1500 1.0515
10.1667 1.0519
10.1833 1.0523
10.2000 1.0527
10.2167 1.0531
10.2333 1.0534
10.2500 1.0538
10.2667 1.0542
10.2833 1.0546
10.3000 1.0550
10.3167 1.0554
10.3333 1.0558
10.3500 1.0562
10.3667 1.0566
10.3833 1.0570
10.4000 1.0573
10.4167 1.0577
10.4333 1.0581
10.4500 1.0585
10.4667 1.0589
10.4833 1.0593
10.5000 1.0597
10.5167 1.0600
10.5333 1.0604
10.5500 1.0608
10.5667 1.0612
10.5833 1.0616
10.6000 1.0620
10.6167 1.0624
10.6333 1.0627
10.6500 1.0631
10.6667 1.0635
10.6833 1.0639
10.7000 1.0643
10.7167 1.0647
10.7333 1.0651
10.7500 1.0654
10.7667 1.0658
10.7833 1.0662
10.8000 1.0666
10.8167 1.0670
10.8333 1.0673
10.8500 1.0677
10.8667 1.0681
10.8833 1.0685
10.9000 1.0689
10.9167 1.0692
10.9333 1.0696
10.9500 1.0700
10.9667 1.0704
10.9833 1.0708
11.0000 1.0711
11.0167 1.0715
11.0333 1.0719
11.0500 1.0723
11.0667 1.0727
11.0833 1.0730
11.1000 1.0734
11.1167 1.0738
11.1333 1.0742
11.1500 1.0745
11.1667 1.0749
11.1833 1.0753
11.2000 1.0757
11.2167 1.0761
11.2333 1.0764
11.2500 1.0768
11.2667 1.0772
11.2833 1.0776
11.3000 1.0779
11.3167 1.0783
11.3333 1.0787
11.3500 1.0790
11.3667 1.0794
11.3833 1.0798
11.4000 1.0802
11.4167 1.0805
11.4333 1.0809
11.4500 1.0813
11.4667 1.0817
11.4833 1.0820
11.5000 1.0824
11.5167 1.0828
11.5333 1.0831
11.5500 1.0835
11.5667 1.0839
11.5833 1.0843
11.6000 1.0846
11.6167 1.0850
11.6333 1.0854
11.6500 1.0857
11.6667 1.0861
11.6833 1.0865
11.7000 1.0868
11.7167 1.0872
11.7333 1.0876
11.7500 1.0879
11.7667 1.0883
11.7833 1.0887
11.8000 1.0890
11.8167 1.0894
11.8333 1.0898
11.8500 1.0901
11.8667 1.0905
11.8833 1.0909
11.9000 1.0912
11.9167 1.0916
11.9333 1.0920
11.9500 1.0923
11.9667 1.0927
11.9833 1.0931
12.0000 1.0934
12.0167 1.0938
12.0333 1.0942
12.0500 1.0945
12.0667 1.0949
12.0833 1.0953
12.1000 1.0956
12.1167 1.0960
12.1333 1.0963
12.1500 1.0967
12.1667 1.0971
12.1833 1.0974
12.2000 1.0978
12.2167 1.0981
12.2333 1.0985
12.2500 1.0989
12.2667 1.0992
12.2833 1.0996
12.3000 1.1000
12.3167 1.1003
12.3333 1.1007
12.3500 1.1010
12.3667 1.1014
12.3833 1.1017
12.4000 1.1021
12.4167 1.1025
12.4333 1.1028
12.4500 1.1032
12.4667 1.1035
12.4833 1.1039
12.5000 1.1043
12.5167 1.1046
12.5333 1.1050
12.5500 1.1053
12.5667 1.1057
12.5833 1.1060
12.6000 1.1064
12.6167 1.1067
12.6333 1.1071
12.6500 1.1075
12.6667 1.1078
12.6833 1.1082
12.7000 1.1085
12.7167 1.1089
12.7333 1.1092
12.7500 1.1096
12.7667 1.1099
12.7833 1.1103
12.8000 1.1106
12.8167 1.1110
12.8333 1.1113
12.8500 1.1117
12.8667 1.1120
12.8833 1.1124
12.9000 1.1127
12.9167 1.1131
12.9333 1.1135
12.9500 1.1138
12.9667 1.1142
12.9833 1.1145
13.0000 1.1149
13.0167 1.1152
13.0333 1.1156
13.0500 1.1159
13.0667 1.1162
13.0833 1.1166
13.1000 1.1169
13.1167 1.1173
13.1333 1.1176
13.1500 1.1180
13.1667 1.1183
13.1833 1.1187
13.2000 1.1190
13.2167 1.1194
13.2333 1.1197
13.2500 1.1201
13.2667 1.1204
13.2833 1.1208
13.3000 1.1211
13.3167 1.1215
13.3333 1.1218
13.3500 1.1221
13.3667 1.1225
13.3833 1.1228
13.4000 1.1232
13.4167 1.1235
13.4333 1.1239
13.4500 1.1242
13.4667 1.1246
13.4833 1.1249
13.5000 1.1252
13.5167 1.1256
13.5333 1.1259
13.5500 1.1263
13.5667 1.1266
13.5833 1.1270
13.6000 1.1273
13.6167 1.1276
13.6333 1.1280
13.6500 1.1283
13.6667 1.1287
13.6833 1.1290
13.7000 1.1293
13.7167 1.1297
13.7333 1.1300
13.7500 1.1304
13.7667 1.1307
13.7833 1.1310
13.8000 1.1314
13.8167 1.1317
13.8333 1.1321
13.8500 1.1324
13.8667 1.1327
13.8833 1.1331
13.9000 1.1334
13.9167 1.1337
13.9333 1.1341
13.9500 1.1344
13.9667 1.1348
13.9833 1.1351
14.0000 1.1354
14.0167 1.1358
14.0333 1.1361
14.0500 1.1364
14.0667 1.1368
14.0833 1.1371
14.1000 1.1374
14.1167 1.1378
14.1333 1.1381
14.1500 1.1384
14.1667 1.1388
14.1833 1.1391
14.2000 1.1394
14.2167 1.1398
14.2333 1.1401
14.2500 1.1404
14.2667 1.1408
14.2833 1.1411
14.3000 1.1414
14.3167 1.1418
14.3333 1.1421
14.3500 1.1424
14.3667 1.1428
14.3833 1.1431
14.4000 1.1434
14.4167 1.1438
14.4333 1.1441
14.4500 1.1444
14.4667 1.1448
14.4833 1.1451
14.5000 1.1454
14.5167 1.1457
14.5333 1.1461
14.5500 1.1464
14.5667 1.1467
14.5833 1.1471
14.6000 1.1474
14.6167 1.1477
14.6333 1.1480
14.6500 1.1484
14.6667 1.1487
14.6833 1.1490
14.7000 1.1493
14.7167 1.1497
14.7333 1.1500
14.7500 1.1503
14.7667 1.1507
14.7833 1.1510
14.8000 1.1513
14.8167 1.1516
14.8333 1.1520
14.8500 1.1523
14.8667 1.1526
14.8833 1.1529
14.9000 1.1533
14.9167 1.1536
14.9333 1.1539
14.9500 1.1542
14.9667 1.1545
14.9833 1.1549
15.0000 1.1552
15.0167 1.1555
15.0333 1.1558
15.0500 1.1562
15.0667 1.1565
15.0833 1.1568
15.1000 1.1571
15.1167 1.1574
15.1333 1.1578
15.1500 1.1581
15.1667 1.1584
15.1833 1.1587
15.2000 1.1591
15.2167 1.1594
15.2333 1.1597
15.2500 1.1600
15.2667 1.1603
15.2833 1.1607
15.3000 1.1610
15.3167 1.1613
15.3333 1.1616
15.3500 1.1619
15.3667 1.1622
15.3833 1.1626
15.4000 1.1629
15.4167 1.1632
15.4333 1.1635
15.4500 1.1638
15.4667 1.1642
15.4833 1.1645
15.5000 1.1648
15.5167 1.1651
15.5333 1.1654
15.5500 1.1657
15.5667 1.1660
15.5833 1.1664
15.6000 1.1667
15.6167 1.1670
15.6333 1.1673
15.6500 1.1676
15.6667 1.1679
15.6833 1.1683
15.7000 1.1686
15.7167 1.1689
15.7333 1.1692
15.7500 1.1695
15.7667 1.1698
15.7833 1.1701
15.8000 1.1704
15.8167 1.1708
15.8333 1.1711
15.8500 1.1714
15.8667 1.1717
15.8833 1.1720
15.9000 1.1723
15.9167 1.1726
15.9333 1.1729
15.9500 1.1733
15.9667 1.1736
15.9833 1.1739
16.0000 1.1742
16.0167 1.1745
16.0333 1.1748
16.0500 1.1751
16.0667 1.1754
16.0833 1.1757
16.1000 1.1760
16.1167 1.1763
16.1333 1.1767
16.1500 1.1770
16.1667 1.1773
16.1833 1.1776
16.2000 1.1779
16.2167 1.1782
16.2333 1.1785
16.2500 1.1788
16.2667 1.1791
16.2833 1.1794
16.3000 1.1797
16.3167 1.1800
16.3333 1.1803
16.3500 1.1807
16.3667 1.1810
16.3833 1.1813
16.4000 1.1816
16.4167 1.1819
16.4333 1.1822
16.4500 1.1825
16.4667 1.1828
16.4833 1.1831
16.5000 1.1834
16.5167 1.1837
16.5333 1.1840
16.5500 1.1843
16.5667 1.1846
16.5833 1.1849
16.6000 1.1852
16.6167 1.1855
16.6333 1.1858
16.6500 1.1861
16.6667 1.1864
16.6833 1.1867
16.7000 1.1870
16.7167 1.1873
16.7333 1.1876
16.7500 1.1879
16.7667 1.1882
16.7833 1.1885
16.8000 1.1888
16.8167 1.1891
16.8333 1.1894
16.8500 1.1897
16.8667 1.1900
16.8833 1.1903
16.9000 1.1906
16.9167 1.1909
16.9333 1.1912
16.9500 1.1915
16.9667 1.1918
16.9833 1.1921
17.0000 1.1924
17.0167 1.1927
17.0333 1.1930
17.0500 1.1933
17.0667 1.1936
17.0833 1.1939
17.1000 1.1942
17.1167 1.1945
17.1333 1.1948
17.1500 1.1951
17.1667 1.1954
17.1833 1.1957
17.2000 1.1960
17.2167 1.1963
17.2333 1.1966
17.2500 1.1969
17.2667 1.1972
17.2833 1.1975
17.3000 1.1978
17.3167 1.1980
17.3333 1.1983
17.3500 1.1986
17.3667 1.1989
17.3833 1.1992
17.4000 1.1995
17.4167 1.1998
17.4333 1.2001
17.4500 1.2004
17.4667 1.2007
17.4833 1.2010
17.5000 1.2013
17.5167 1.2016
17.5333 1.2019
17.5500 1.2021
17.5667 1.2024
17.5833 1.2027
17.6000 1.2030
17.6167 1.2033
17.6333 1.2036
17.6500 1.2039
17.6667 1.2042
17.6833 1.2045
17.7000 1.2048
17.7167 1.2050
17.7333 1.2053
17.7500 1.2056
17.7667 1.2059
17.7833 1.2062
17.8000 1.2065
17.8167 1.2068
17.8333 1.2071
17.8500 1.2074
17.8667 1.2076
17.8833 1.2079
17.9000 1.2082
17.9167 1.2085
17.9333 1.2088
17.9500 1.2091
17.9667 1.2094
17.9833 1.2097
18.0000 1.2099
18.0167 1.2102
18.0333 1.2105
18.0500 1.2108
18.0667 1.2111
18.0833 1.2114
18.1000 1.2117
18.1167 1.2119
18.1333 1.2122
18.1500 1.2125
18.1667 1.2128
18.1833 1.2131
18.2000 1.2134
18.2167 1.2136
18.2333 1.2139
18.2500 1.2142
18.2667 1.2145
18.2833 1.2148
18.3000 1.2151
18.3167 1.2153
18.3333 1.2156
18.3500 1.2159
18.3667 1.2162
18.3833 1.2165
18.4000 1.2168
18.4167 1.2170
18.4333 1.2173
18.4500 1.2176
18.4667 1.2179
18.4833 1.2182
18.5000 1.2184
18.5167 1.2187
18.5333 1.2190
18.5500 1.2193
18.5667 1.2196
18.5833 1.2198
18.6000 1.2201
18.6167 1.2204
18.6333 1.2207
18.6500 1.2210
18.6667 1.2212
18.6833 1.2215
18.7000 1.2218
18.7167 1.2221
18.7333 1.2223
18.7500 1.2226
18.7667 1.2229
18.7833 1.2232
18.8000 1.2235
18.8167 1.2237
18.8333 1.2240
18.8500 1.2243
18.8667 1.2246
18.8833 1.2248
18.9000 1.2251
18.9167 1.2254
18.9333 1.2257
18.9500 1.2259
18.9667 1.2262
18.9833 1.2265
19.0000 1.2268
19.0167 1.2270
19.0333 1.2273
19.0500 1.2276
19.0667 1.2279
19.0833 1.2281
19.1000 1.2284
19.1167 1.2287
19.1333 1.2290
19.1500 1.2292
19.1667 1.2295
19.1833 1.2298
19.2000 1.2300
19.2167 1.2303
19.2333 1.2306
19.2500 1.2309
19.2667 1.2311
19.2833 1.2314
19.3000 1.2317
19.3167 1.2320
19.3333 1.2322
19.3500 1.2325
19.3667 1.2328
19.3833 1.2330
19.4000 1.2333
19.4167 1.2336
19.4333 1.2338
19.4500 1.2341
19.4667 1.2344
19.4833 1.2347
19.5000 1.2349
19.5167 1.2352
19.5333 1.2355
19.5500 1.2357
19.5667 1.2360
19.5833 1.2363
19.6000 1.2365
19.6167 1.2368
19.6333 1.2371
19.6500 1.2373
19.6667 1.2376
19.6833 1.2379
19.7000 1.2381
19.7167 1.2384
19.7333 1.2387
19.7500 1.2389
19.7667 1.2392
19.7833 1.2395
19.8000 1.2397
19.8167 1.2400
19.8333 1.2403
19.8500 1.2405
19.8667 1.2408
19.8833 1.2411
19.9000 1.2413
19.9167 1.2416
19.9333 1.2419
19.9500 1.2421
19.9667 1.2424
19.9833 1.2427
20.0000 1.2429
20.0167 1.2432
20.0333 1.2434
20.0500 1.2437
20.0667 1.2440
20.0833 1.2442
20.1000 1.2445
20.1167 1.2448
20.1333 1.2450
20.1500 1.2453
20.1667 1.2455
20.1833 1.2458
20.2000 1.2461
20.2167 1.2463
20.2333 1.2466
20.2500 1.2469
20.2667 1.2471
20.2833 1.2474
20.3000 1.2476
20.3167 1.2479
20.3333 1.2482
20.3500 1.2484
20.3667 1.2487
20.3833 1.2489
20.4000 1.2492
20.4167 1.2495
20.4333 1.2497
20.4500 1.2500
20.4667 1.2502
20.4833 1.2505
20.5000 1.2508
20.5167 1.2510
20.5333 1.2513
20.5500 1.2515
20.5667 1.2518
20.5833 1.2520
20.6000 1.2523
20.6167 1.2526
20.6333 1.2528
20.6500 1.2531
20.6667 1.2533
20.6833 1.2536
20.7000 1.2538
20.7167 1.2541
20.7333 1.2544
20.7500 1.2546
20.7667 1.2549
20.7833 1.2551
20.8000 1.2554
20.8167 1.2556
20.8333 1.2559
20.8500 1.2561
20.8667 1.2564
20.8833 1.2567
20.9000 1.2569
20.9167 1.2572
20.9333 1.2574
20.9500 1.2577
20.9667 1.2579
20.9833 1.2582
21.0000 1.2584
21.0167 1.2587
21.0333 1.2589
21.0500 1.2592
21.0667 1.2594
21.0833 1.2597
21.1000 1.2599
21.1167 1.2602
21.1333 1.2605
21.1500 1.2607
21.1667 1.2610
21.1833 1.2612
21.2000 1.2615
21.2167 1.2617
21.2333 1.2620
21.2500 1.2622
21.2667 1.2625
21.2833 1.2627
21.3000 1.2630
21.3167 1.2632
21.3333 1.2635
21.3500 1.2637
21.3667 1.2640
21.3833 1.2642
21.4000 1.2645
21.4167 1.2647
21.4333 1.2650
21.4500 1.2652
21.4667 1.2655
21.4833 1.2657
21.5000 1.2660
21.5167 1.2662
21.5333 1.2664
21.5500 1.2667
21.5667 1.2669
21.5833 1.2672
21.6000 1.2674
21.6167 1.2677
21.6333 1.2679
21.6500 1.2682
21.6667 1.2684
21.6833 1.2687
21.7000 1.2689
21.7167 1.2692
21.7333 1.2694
21.7500 1.2697
21.7667 1.2699
21.7833 1.2701
21.8000 1.2704
21.8167 1.2706
21.8333 1.2709
21.8500 1.2711
21.8667 1.2714
21.8833 1.2716
21.9000 1.2719
21.9167 1.2721
21.9333 1.2723
21.9500 1.2726
21.9667 1.2728
21.9833 1.2731
22.0000 1.2733
22.0167 1.2736
22.0333 1.2738
22.0500 1.2741
22.0667 1.2743
22.0833 1.2745
22.1000 1.2748
22.1167 1.2750
22.1333 1.2753
22.1500 1.2755
22.1667 1.2757
22.1833 1.2760
22.2000 1.2762
22.2167 1.2765
22.2333 1.2767
22.2500 1.2770
22.2667 1.2772
22.2833 1.2774
22.3000 1.2777
22.3167 1.2779
22.3333 1.2782
22.3500 1.2784
22.3667 1.2786
22.3833 1.2789
22.4000 1.2791
22.4167 1.2794
22.4333 1.2796
22.4500 1.2798
22.4667 1.2801
22.4833 1.2803
22.5000 1.2805
22.5167 1.2808
22.5333 1.2810
22.5500 1.2813
22.5667 1.2815
22.5833 1.2817
22.6000 1.2820
22.6167 1.2822
22.6333 1.2824
22.6500 1.2827
22.6667 1.2829
22.6833 1.2832
22.7000 1.2834
22.7167 1.2836
22.7333 1.2839
22.7500 1.2841
22.7667 1.2843
22.7833 1.2846
22.8000 1.2848
22.8167 1.2850
22.8333 1.2853
