time [s] Activity [arb units]
0.0000 0.0000
0.0167 0.0333
0.0333 0.0667
0.0500 0.1000
0.0667 0.1332
0.0833 0.1665
0.1000 0.1997
0.1167 0.2328
0.1333 0.2659
0.1500 0.2989
0.1667 0.3318
0.1833 0.3646
0.2000 0.3973
0.2167 0.4300
0.2333 0.4624
0.2500 0.4948
0.2667 0.5270
0.2833 0.5591
0.3000 0.5910
0.3167 0.6228
0.3333 0.6544
0.3500 0.6858
0.3667 0.7170
0.3833 0.7480
0.4000 0.7788
0.4167 0.8094
0.4333 0.8398
0.4500 0.8699
0.4667 0.8998
0.4833 0.9295
0.5000 0.9589
0.5167 0.9880
0.5333 1.0168
0.5500 1.0454
0.5667 1.0736
0.5833 1.1016
0.6000 1.1293
0.6167 1.1566
0.6333 1.1837
0.6500 1.2104
0.6667 1.2367
0.6833 1.2628
0.7000 1.2884
0.7167 1.3137
0.7333 1.3387
0.7500 1.3633
0.7667 1.3875
0.7833 1.4113
0.8000 1.4347
0.8167 1.4577
0.8333 1.4804
0.8500 1.5026
0.8667 1.5244
0.8833 1.5457
0.9000 1.5667
0.9167 1.5872
0.9333 1.6072
0.9500 1.6268
0.9667 1.6460
0.9833 1.6647
1.0000 1.6829
1.0167 1.7007
1.0333 1.7180
1.0500 1.7348
1.0667 1.7512
1.0833 1.7670
1.1000 1.7824
1.1167 1.7973
1.1333 1.8117
1.1500 1.8255
1.1667 1.8389
1.1833 1.8517
1.2000 1.8641
1.2167 1.8759
1.2333 1.8872
1.2500 1.8980
1.2667 1.9082
1.2833 1.9179
1.3000 1.9271
1.3167 1.9358
1.3333 1.9439
1.3500 1.9514
1.3667 1.9585
1.3833 1.9650
1.4000 1.9709
1.4167 1.9763
1.4333 1.9811
1.4500 1.9854
1.4667 1.9892
1.4833 1.9924
1.5000 1.9950
1.5167 1.9971
1.5333 1.9986
1.5500 1.9996
1.5667 2.0000
1.5833 1.9998
1.6000 1.9991
1.6167 1.9979
1.6333 1.9961
1.6500 1.9937
1.6667 1.9908
1.6833 1.9873
1.7000 1.9833
1.7167 1.9788
1.7333 1.9736
1.7500 1.9680
1.7667 1.9618
1.7833 1.9550
1.8000 1.9477
1.8167 1.9399
1.8333 1.9315
1.8500 1.9226
1.8667 1.9131
1.8833 1.9031
1.9000 1.8926
1.9167 1.8816
1.9333 1.8700
1.9500 1.8579
1.9667 1.8453
1.9833 1.8322
2.0000 1.8186
2.0167 1.8045
2.0333 1.7898
2.0500 1.7747
2.0667 1.7591
2.0833 1.7430
2.1000 1.7264
2.1167 1.7094
2.1333 1.6918
2.1500 1.6738
2.1667 1.6553
2.1833 1.6364
2.2000 1.6170
2.2167 1.5972
2.2333 1.5769
2.2500 1.5561
2.2667 1.5350
2.2833 1.5134
2.3000 1.4914
2.3167 1.4690
2.3333 1.4462
2.3500 1.4229
2.3667 1.3993
2.3833 1.3753
2.4000 1.3509
2.4167 1.3262
2.4333 1.3010
2.4500 1.2755
2.4667 1.2497
2.4833 1.2235
2.5000 1.1969
2.5167 1.1701
2.5333 1.1429
2.5500 1.1154
2.5667 1.0875
2.5833 1.0594
2.6000 1.0310
2.6167 1.0023
2.6333 0.9733
2.6500 0.9441
2.6667 0.9145
2.6833 0.8848
2.7000 0.8548
2.7167 0.8245
2.7333 0.7940
2.7500 0.7633
2.7667 0.7324
2.7833 0.7013
2.8000 0.6700
2.8167 0.6385
2.8333 0.6068
2.8500 0.5750
2.8667 0.5430
2.8833 0.5108
2.9000 0.4785
2.9167 0.4461
2.9333 0.4135
2.9500 0.3808
2.9667 0.3481
2.9833 0.3152
3.0000 0.2822
3.0167 0.2492
3.0333 0.2161
3.0500 0.1829
3.0667 0.1497
3.0833 0.1165
3.1000 0.0832
3.1167 0.0498
3.1333 0.0165
3.1500 0.0084
3.1667 0.0251
3.1833 0.0417
3.2000 0.0584
3.2167 0.0750
3.2333 0.0916
3.2500 0.1082
3.2667 0.1247
3.2833 0.1413
3.3000 0.1577
3.3167 0.1742
3.3333 0.1906
3.3500 0.2069
3.3667 0.2232
3.3833 0.2394
3.4000 0.2555
3.4167 0.2716
3.4333 0.2876
3.4500 0.3035
3.4667 0.3194
3.4833 0.3351
3.5000 0.3508
3.5167 0.3663
3.5333 0.3818
3.5500 0.3971
3.5667 0.4124
3.5833 0.4275
3.6000 0.4425
3.6167 0.4574
3.6333 0.4722
3.6500 0.4868
3.6667 0.5013
3.6833 0.5156
3.7000 0.5298
3.7167 0.5439
3.7333 0.5578
3.7500 0.5716
3.7667 0.5852
3.7833 0.5986
3.8000 0.6119
3.8167 0.6250
3.8333 0.6379
3.8500 0.6506
3.8667 0.6632
3.8833 0.6756
3.9000 0.6878
3.9167 0.6998
3.9333 0.7116
3.9500 0.7232
3.9667 0.7346
3.9833 0.7458
4.0000 0.7568
4.0167 0.7676
4.0333 0.7782
4.0500 0.7885
4.0667 0.7987
4.0833 0.8086
4.1000 0.8183
4.1167 0.8277
4.1333 0.8370
4.1500 0.8460
4.1667 0.8548
4.1833 0.8633
4.2000 0.8716
4.2167 0.8796
4.2333 0.8874
4.2500 0.8950
4.2667 0.9023
4.2833 0.9094
4.3000 0.9162
4.3167 0.9227
4.3333 0.9290
4.3500 0.9351
4.3667 0.9408
4.3833 0.9463
4.4000 0.9516
4.4167 0.9566
4.4333 0.9613
4.4500 0.9658
4.4667 0.9700
4.4833 0.9739
4.5000 0.9775
4.5167 0.9809
4.5333 0.9840
4.5500 0.9868
4.5667 0.9894
4.5833 0.9917
4.6000 0.9937
4.6167 0.9954
4.6333 0.9969
4.6500 0.9981
4.6667 0.9990
4.6833 0.9996
4.7000 0.9999
4.7167 1.0000
4.7333 0.9998
4.7500 0.9993
4.7667 0.9985
4.7833 0.9975
4.8000 0.9962
4.8167 0.9946
4.8333 0.9927
4.8500 0.9905
4.8667 0.9881
4.8833 0.9854
4.9000 0.9825
4.9167 0.9792
4.9333 0.9757
4.9500 0.9719
4.9667 0.9678
4.9833 0.9635
5.0000 0.9589
5.0167 0.9541
5.0333 0.9489
5.0500 0.9435
5.0667 0.9379
5.0833 0.9320
5.1000 0.9258
5.1167 0.9194
5.1333 0.9127
5.1500 0.9058
5.1667 0.8986
5.1833 0.8911
5.2000 0.8835
5.2167 0.8755
5.2333 0.8673
5.2500 0.8589
5.2667 0.8503
5.2833 0.8414
5.3000 0.8323
5.3167 0.8229
5.3333 0.8133
5.3500 0.8035
5.3667 0.7935
5.3833 0.7832
5.4000 0.7728
5.4167 0.7621
5.4333 0.7512
5.4500 0.7401
5.4667 0.7288
5.4833 0.7173
5.5000 0.7055
5.5167 0.6936
5.5333 0.6815
5.5500 0.6692
5.5667 0.6568
5.5833 0.6441
5.6000 0.6313
5.6167 0.6183
5.6333 0.6051
5.6500 0.5917
5.6667 0.5782
5.6833 0.5645
5.7000 0.5507
5.7167 0.5367
5.7333 0.5226
5.7500 0.5083
5.7667 0.4939
5.7833 0.4793
5.8000 0.4646
5.8167 0.4498
5.8333 0.4348
5.8500 0.4198
5.8667 0.4046
5.8833 0.3893
5.9000 0.3739
5.9167 0.3584
5.9333 0.3428
5.9500 0.3271
5.9667 0.3113
5.9833 0.2954
6.0000 0.2794
6.0167 0.2634
6.0333 0.2473
6.0500 0.2311
6.0667 0.2148
6.0833 0.1985
6.1000 0.1822
6.1167 0.1658
6.1333 0.1493
6.1500 0.1328
6.1667 0.1163
6.1833 0.0997
6.2000 0.0831
6.2167 0.0665
6.2333 0.0498
6.2500 0.0332
6.2667 0.0165
6.2833 0.0003
6.3000 0.0336
6.3167 0.0670
6.3333 0.1003
6.3500 0.1335
6.3667 0.1668
6.3833 0.2000
6.4000 0.2331
6.4167 0.2662
6.4333 0.2992
6.4500 0.3321
6.4667 0.3649
6.4833 0.3976
6.5000 0.4302
6.5167 0.4627
6.5333 0.4951
6.5500 0.5273
6.5667 0.5594
6.5833 0.5913
6.6000 0.6231
6.6167 0.6547
6.6333 0.6861
6.6500 0.7173
6.6667 0.7483
6.6833 0.7791
6.7000 0.8097
6.7167 0.8401
6.7333 0.8702
6.7500 0.9001
6.7667 0.9297
6.7833 0.9591
6.8000 0.9882
6.8167 1.0171
6.8333 1.0456
6.8500 1.0739
6.8667 1.1019
6.8833 1.1295
6.9000 1.1569
6.9167 1.1839
6.9333 1.2106
6.9500 1.2370
6.9667 1.2630
6.9833 1.2887
7.0000 1.3140
7.0167 1.3389
7.0333 1.3635
7.0500 1.3877
7.0667 1.4115
7.0833 1.4349
7.1000 1.4579
7.1167 1.4806
7.1333 1.5028
7.1500 1.5245
7.1667 1.5459
7.1833 1.5668
7.2000 1.5873
7.2167 1.6074
7.2333 1.6270
7.2500 1.6462
7.2667 1.6649
7.2833 1.6831
7.3000 1.7009
7.3167 1.7182
7.3333 1.7350
7.3500 1.7513
7.3667 1.7672
7.3833 1.7825
7.4000 1.7974
7.4167 1.8118
7.4333 1.8256
7.4500 1.8390
7.4667 1.8519
7.4833 1.8642
7.5000 1.8760
7.5167 1.8873
7.5333 1.8981
7.5500 1.9083
7.5667 1.9180
7.5833 1.9272
7.6000 1.9358
7.6167 1.9439
7.6333 1.9515
7.6500 1.9585
7.6667 1.9650
7.6833 1.9709
7.7000 1.9763
7.7167 1.9812
7.7333 1.9855
7.7500 1.9892
7.7667 1.9924
7.7833 1.9950
7.8000 1.9971
7.8167 1.9986
7.8333 1.9996
7.8500 2.0000
7.8667 1.9998
7.8833 1.9991
7.9000 1.9979
7.9167 1.9961
7.9333 1.9937
7.9500 1.9908
7.9667 1.9873
7.9833 1.9833
8.0000 1.9787
8.0167 1.9736
8.0333 1.9679
8.0500 1.9617
8.0667 1.9549
8.0833 1.9476
8.1000 1.9398
8.1167 1.9314
8.1333 1.9225
8.1500 1.9130
8.1667 1.9030
8.1833 1.8925
8.2000 1.8815
8.2167 1.8699
8.2333 1.8578
8.2500 1.8452
8.2667 1.8321
8.2833 1.8185
8.3000 1.8043
8.3167 1.7897
8.3333 1.7746
8.3500 1.7590
8.3667 1.7429
8.3833 1.7263
8.4000 1.7092
8.4167 1.6917
8.4333 1.6736
8.4500 1.6552
8.4667 1.6362
8.4833 1.6168
8.5000 1.5970
8.5167 1.5767
8.5333 1.5560
8.5500 1.5348
8.5667 1.5132
8.5833 1.4912
8.6000 1.4688
8.6167 1.4460
8.6333 1.4227
8.6500 1.3991
8.6667 1.3751
8.6833 1.3507
8.7000 1.3259
8.7167 1.3008
8.7333 1.2753
8.7500 1.2494
8.7667 1.2232
8.7833 1.1967
8.8000 1.1698
8.8167 1.1426
8.8333 1.1151
8.8500 1.0873
8.8667 1.0592
8.8833 1.0307
8.9000 1.0020
8.9167 0.9731
8.9333 0.9438
8.9500 0.9143
8.9667 0.8845
8.9833 0.8545
9.0000 0.8242
9.0167 0.7938
9.0333 0.7630
9.0500 0.7321
9.0667 0.7010
9.0833 0.6697
9.1000 0.6382
9.1167 0.6065
9.1333 0.5747
9.1500 0.5427
9.1667 0.5105
9.1833 0.4782
9.2000 0.4458
9.2167 0.4132
9.2333 0.3806
9.2500 0.3478
9.2667 0.3149
9.2833 0.2819
9.3000 0.2489
9.3167 0.2158
9.3333 0.1826
9.3500 0.1494
9.3667 0.1162
9.3833 0.0829
9.4000 0.0496
9.4167 0.0162
9.4333 0.0086
9.4500 0.0252
9.4667 0.0419
9.4833 0.0585
9.5000 0.0752
9.5167 0.0918
9.5333 0.1083
9.5500 0.1249
9.5667 0.1414
9.5833 0.1579
9.6000 0.1743
9.6167 0.1907
9.6333 0.2070
9.6500 0.2233
9.6667 0.2395
9.6833 0.2557
9.7000 0.2718
9.7167 0.2878
9.7333 0.3037
9.7500 0.3195
9.7667 0.3353
9.7833 0.3509
9.8000 0.3665
9.8167 0.3819
9.8333 0.3973
9.8500 0.4125
9.8667 0.4276
9.8833 0.4427
9.9000 0.4575
9.9167 0.4723
9.9333 0.4869
9.9500 0.5014
9.9667 0.5158
9.9833 0.5300
10.0000 0.5440
10.0167 0.5579
10.0333 0.5717
10.0500 0.5853
10.0667 0.5987
10.0833 0.6120
10.1000 0.6251
10.1167 0.6380
10.1333 0.6507
10.1500 0.6633
10.1667 0.6757
10.1833 0.6879
10.2000 0.6999
10.2167 0.7117
10.2333 0.7233
10.2500 0.7347
10.2667 0.7459
10.2833 0.7569
10.3000 0.7677
10.3167 0.7783
10.3333 0.7886
10.3500 0.7988
10.3667 0.8087
10.3833 0.8184
10.4000 0.8278
10.4167 0.8371
10.4333 0.8461
10.4500 0.8548
10.4667 0.8634
10.4833 0.8716
10.5000 0.8797
10.5167 0.8875
10.5333 0.8951
10.5500 0.9024
10.5667 0.9094
10.5833 0.9162
10.6000 0.9228
10.6167 0.9291
10.6333 0.9351
10.6500 0.9409
10.6667 0.9464
10.6833 0.9516
10.7000 0.9566
10.7167 0.9614
10.7333 0.9658
10.7500 0.9700
10.7667 0.9739
10.7833 0.9776
10.8000 0.9809
10.8167 0.9840
10.8333 0.9869
10.8500 0.9894
10.8667 0.9917
10.8833 0.9937
10.9000 0.9954
10.9167 0.9969
10.9333 0.9981
10.9500 0.9990
10.9667 0.9996
10.9833 0.9999
11.0000 1.0000
11.0167 0.9998
11.0333 0.9993
11.0500 0.9985
11.0667 0.9975
11.0833 0.9962
11.1000 0.9946
11.1167 0.9927
11.1333 0.9905
11.1500 0.9881
11.1667 0.9854
11.1833 0.9824
11.2000 0.9792
11.2167 0.9757
11.2333 0.9719
11.2500 0.9678
11.2667 0.9635
11.2833 0.9589
11.3000 0.9540
11.3167 0.9489
11.3333 0.9435
11.3500 0.9378
11.3667 0.9319
11.3833 0.9258
11.4000 0.9193
11.4167 0.9126
11.4333 0.9057
11.4500 0.8985
11.4667 0.8911
11.4833 0.8834
11.5000 0.8755
11.5167 0.8673
11.5333 0.8589
11.5500 0.8502
11.5667 0.8413
11.5833 0.8322
11.6000 0.8228
11.6167 0.8132
11.6333 0.8034
11.6500 0.7934
11.6667 0.7831
11.6833 0.7727
11.7000 0.7620
11.7167 0.7511
11.7333 0.7400
11.7500 0.7287
11.7667 0.7171
11.7833 0.7054
11.8000 0.6935
11.8167 0.6814
11.8333 0.6691
11.8500 0.6567
11.8667 0.6440
11.8833 0.6312
11.9000 0.6181
11.9167 0.6050
11.9333 0.5916
11.9500 0.5781
11.9667 0.5644
11.9833 0.5506
12.0000 0.5366
12.0167 0.5224
12.0333 0.5082
12.0500 0.4937
12.0667 0.4792
12.0833 0.4645
12.1000 0.4496
12.1167 0.4347
12.1333 0.4196
12.1500 0.4044
12.1667 0.3891
12.1833 0.3737
12.2000 0.3582
12.2167 0.3426
12.2333 0.3269
12.2500 0.3111
12.2667 0.2952
12.2833 0.2793
12.3000 0.2632
12.3167 0.2471
12.3333 0.2309
12.3500 0.2147
12.3667 0.1984
12.3833 0.1820
12.4000 0.1656
12.4167 0.1491
12.4333 0.1326
12.4500 0.1161
12.4667 0.0995
12.4833 0.0829
12.5000 0.0663
12.5167 0.0497
12.5333 0.0330
12.5500 0.0164
12.5667 0.0006
12.5833 0.0339
12.6000 0.0672
12.6167 0.1005
12.6333 0.1338
12.6500 0.1671
12.6667 0.2003
12.6833 0.2334
12.7000 0.2665
12.7167 0.2995
12.7333 0.3324
12.7500 0.3652
12.7667 0.3979
12.7833 0.4305
12.8000 0.4630
12.8167 0.4954
12.8333 0.5276
12.8500 0.5597
12.8667 0.5916
12.8833 0.6234
12.9000 0.6549
12.9167 0.6864
12.9333 0.7176
12.9500 0.7486
12.9667 0.7794
12.9833 0.8100
13.0000 0.8403
13.0167 0.8705
13.0333 0.9004
13.0500 0.9300
13.0667 0.9594
13.0833 0.9885
13.1000 1.0173
13.1167 1.0459
13.1333 1.0741
13.1500 1.1021
13.1667 1.1298
13.1833 1.1571
13.2000 1.1841
13.2167 1.2108
13.2333 1.2372
13.2500 1.2632
13.2667 1.2889
13.2833 1.3142
13.3000 1.3391
13.3167 1.3637
13.3333 1.3879
13.3500 1.4117
13.3667 1.4351
13.3833 1.4581
13.4000 1.4808
13.4167 1.5030
13.4333 1.5247
13.4500 1.5461
13.4667 1.5670
13.4833 1.5875
13.5000 1.6076
13.5167 1.6272
13.5333 1.6463
13.5500 1.6650
13.5667 1.6833
13.5833 1.7010
13.6000 1.7183
13.6167 1.7351
13.6333 1.7515
13.6500 1.7673
13.6667 1.7827
13.6833 1.7975
13.7000 1.8119
13.7167 1.8258
13.7333 1.8391
13.7500 1.8520
13.7667 1.8643
13.7833 1.8761
13.8000 1.8874
13.8167 1.8982
13.8333 1.9084
13.8500 1.9181
13.8667 1.9273
13.8833 1.9359
13.9000 1.9440
13.9167 1.9516
13.9333 1.9586
13.9500 1.9651
13.9667 1.9710
13.9833 1.9764
14.0000 1.9812
14.0167 1.9855
14.0333 1.9892
14.0500 1.9924
14.0667 1.9950
14.0833 1.9971
14.1000 1.9986
14.1167 1.9996
14.1333 2.0000
14.1500 1.9998
14.1667 1.9991
14.1833 1.9979
14.2000 1.9961
14.2167 1.9937
14.2333 1.9908
14.2500 1.9873
14.2667 1.9833
14.2833 1.9787
14.3000 1.9735
14.3167 1.9679
14.3333 1.9616
14.3500 1.9549
14.3667 1.9476
14.3833 1.9397
14.4000 1.9313
14.4167 1.9224
14.4333 1.9129
14.4500 1.9029
14.4667 1.8924
14.4833 1.8814
14.5000 1.8698
14.5167 1.8577
14.5333 1.8451
14.5500 1.8320
14.5667 1.8183
14.5833 1.8042
14.6000 1.7896
14.6167 1.7745
14.6333 1.7588
14.6500 1.7427
14.6667 1.7261
14.6833 1.7090
14.7000 1.6915
14.7167 1.6735
14.7333 1.6550
14.7500 1.6360
14.7667 1.6166
14.7833 1.5968
14.8000 1.5765
14.8167 1.5558
14.8333 1.5346
14.8500 1.5130
14.8667 1.4910
14.8833 1.4686
14.9000 1.4458
14.9167 1.4225
14.9333 1.3989
14.9500 1.3749
14.9667 1.3505
14.9833 1.3257
15.0000 1.3006
15.0167 1.2751
15.0333 1.2492
15.0500 1.2230
15.0667 1.1965
15.0833 1.1696
15.1000 1.1424
15.1167 1.1149
15.1333 1.0870
15.1500 1.0589
15.1667 1.0305
15.1833 1.0018
15.2000 0.9728
15.2167 0.9435
15.2333 0.9140
15.2500 0.8842
15.2667 0.8542
15.2833 0.8240
15.3000 0.7935
15.3167 0.7628
15.3333 0.7319
15.3500 0.7007
15.3667 0.6694
15.3833 0.6379
15.4000 0.6062
15.4167 0.5744
15.4333 0.5424
15.4500 0.5102
15.4667 0.4779
15.4833 0.4455
15.5000 0.4129
15.5167 0.3803
15.5333 0.3475
15.5500 0.3146
15.5667 0.2817
15.5833 0.2486
15.6000 0.2155
15.6167 0.1823
15.6333 0.1491
15.6500 0.1159
15.6667 0.0826
15.6833 0.0493
15.7000 0.0159
15.7167 0.0087
15.7333 0.0254
15.7500 0.0420
15.7667 0.0587
15.7833 0.0753
15.8000 0.0919
15.8167 0.1085
15.8333 0.1250
15.8500 0.1416
15.8667 0.1580
15.8833 0.1745
15.9000 0.1909
15.9167 0.2072
15.9333 0.2235
15.9500 0.2397
15.9667 0.2558
15.9833 0.2719
16.0000 0.2879
16.0167 0.3038
16.0333 0.3197
16.0500 0.3354
16.0667 0.3511
16.0833 0.3666
16.1000 0.3821
16.1167 0.3974
16.1333 0.4127
16.1500 0.4278
16.1667 0.4428
16.1833 0.4577
16.2000 0.4724
16.2167 0.4870
16.2333 0.5015
16.2500 0.5159
16.2667 0.5301
16.2833 0.5441
16.3000 0.5581
16.3167 0.5718
16.3333 0.5854
16.3500 0.5988
16.3667 0.6121
16.3833 0.6252
16.4000 0.6381
16.4167 0.6508
16.4333 0.6634
16.4500 0.6758
16.4667 0.6880
16.4833 0.7000
16.5000 0.7118
16.5167 0.7234
16.5333 0.7348
16.5500 0.7460
16.5667 0.7570
16.5833 0.7678
16.6000 0.7784
16.6167 0.7887
16.6333 0.7988
16.6500 0.8088
16.6667 0.8184
16.6833 0.8279
16.7000 0.8371
16.7167 0.8461
16.7333 0.8549
16.7500 0.8634
16.7667 0.8717
16.7833 0.8798
16.8000 0.8876
16.8167 0.8951
16.8333 0.9024
16.8500 0.9095
16.8667 0.9163
16.8833 0.9228
16.9000 0.9291
16.9167 0.9352
16.9333 0.9409
16.9500 0.9464
16.9667 0.9517
16.9833 0.9567
17.0000 0.9614
17.0167 0.9658
17.0333 0.9700
17.0500 0.9739
17.0667 0.9776
17.0833 0.9810
17.1000 0.9841
17.1167 0.9869
17.1333 0.9894
17.1500 0.9917
17.1667 0.9937
17.1833 0.9955
17.2000 0.9969
17.2167 0.9981
17.2333 0.9990
17.2500 0.9996
17.2667 0.9999
17.2833 1.0000
17.3000 0.9998
17.3167 0.9993
17.3333 0.9985
17.3500 0.9975
17.3667 0.9961
17.3833 0.9945
17.4000 0.9927
17.4167 0.9905
17.4333 0.9881
17.4500 0.9854
17.4667 0.9824
17.4833 0.9791
17.5000 0.9756
17.5167 0.9718
17.5333 0.9678
17.5500 0.9634
17.5667 0.9588
17.5833 0.9540
17.6000 0.9488
17.6167 0.9435
17.6333 0.9378
17.6500 0.9319
17.6667 0.9257
17.6833 0.9193
17.7000 0.9126
17.7167 0.9056
17.7333 0.8984
17.7500 0.8910
17.7667 0.8833
17.7833 0.8754
17.8000 0.8672
17.8167 0.8588
17.8333 0.8501
17.8500 0.8412
17.8667 0.8321
17.8833 0.8227
17.9000 0.8132
17.9167 0.8033
17.9333 0.7933
17.9500 0.7831
17.9667 0.7726
17.9833 0.7619
18.0000 0.7510
18.0167 0.7399
18.0333 0.7286
18.0500 0.7170
18.0667 0.7053
18.0833 0.6934
18.1000 0.6813
18.1167 0.6690
18.1333 0.6565
18.1500 0.6439
18.1667 0.6310
18.1833 0.6180
18.2000 0.6048
18.2167 0.5915
18.2333 0.5780
18.2500 0.5643
18.2667 0.5504
18.2833 0.5364
18.3000 0.5223
18.3167 0.5080
18.3333 0.4936
18.3500 0.4790
18.3667 0.4643
18.3833 0.4495
18.4000 0.4346
18.4167 0.4195
18.4333 0.4043
18.4500 0.3890
18.4667 0.3736
18.4833 0.3581
18.5000 0.3425
18.5167 0.3268
18.5333 0.3110
18.5500 0.2951
18.5667 0.2791
18.5833 0.2631
18.6000 0.2470
18.6167 0.2308
18.6333 0.2145
18.6500 0.1982
18.6667 0.1819
18.6833 0.1655
18.7000 0.1490
18.7167 0.1325
18.7333 0.1160
18.7500 0.0994
18.7667 0.0828
18.7833 0.0662
18.8000 0.0495
18.8167 0.0329
18.8333 0.0162
18.8500 0.0009
18.8667 0.0342
18.8833 0.0675
18.9000 0.1008
18.9167 0.1341
18.9333 0.1674
18.9500 0.2006
18.9667 0.2337
18.9833 0.2668
19.0000 0.2998
19.0167 0.3327
19.0333 0.3655
19.0500 0.3982
19.0667 0.4308
19.0833 0.4633
19.1000 0.4957
19.1167 0.5279
19.1333 0.5600
19.1500 0.5919
19.1667 0.6236
19.1833 0.6552
19.2000 0.6866
19.2167 0.7178
19.2333 0.7489
19.2500 0.7797
19.2667 0.8102
19.2833 0.8406
19.3000 0.8707
19.3167 0.9006
19.3333 0.9303
19.3500 0.9596
19.3667 0.9887
19.3833 1.0176
19.4000 1.0461
19.4167 1.0744
19.4333 1.1024
19.4500 1.1300
19.4667 1.1574
19.4833 1.1844
19.5000 1.2111
19.5167 1.2374
19.5333 1.2635
19.5500 1.2891
19.5667 1.3144
19.5833 1.3394
19.6000 1.3639
19.6167 1.3881
19.6333 1.4119
19.6500 1.4353
19.6667 1.4583
19.6833 1.4810
19.7000 1.5031
19.7167 1.5249
19.7333 1.5463
19.7500 1.5672
19.7667 1.5877
19.7833 1.6077
19.8000 1.6273
19.8167 1.6465
19.8333 1.6652
19.8500 1.6834
19.8667 1.7012
19.8833 1.7185
19.9000 1.7353
19.9167 1.7516
19.9333 1.7675
19.9500 1.7828
19.9667 1.7977
19.9833 1.8120
20.0000 1.8259
20.0167 1.8392
20.0333 1.8521
20.0500 1.8644
20.0667 1.8762
20.0833 1.8875
20.1000 1.8982
20.1167 1.9085
20.1333 1.9182
20.1500 1.9274
20.1667 1.9360
20.1833 1.9441
20.2000 1.9516
20.2167 1.9587
20.2333 1.9651
20.2500 1.9711
20.2667 1.9764
20.2833 1.9813
20.3000 1.9855
20.3167 1.9893
20.3333 1.9924
20.3500 1.9951
20.3667 1.9971
20.3833 1.9986
20.4000 1.9996
20.4167 2.0000
20.4333 1.9998
20.4500 1.9991
20.4667 1.9979
20.4833 1.9960
20.5000 1.9937
20.5167 1.9907
20.5333 1.9872
20.5500 1.9832
20.5667 1.9786
20.5833 1.9735
20.6000 1.9678
20.6167 1.9616
20.6333 1.9548
20.6500 1.9475
20.6667 1.9396
20.6833 1.9312
20.7000 1.9223
20.7167 1.9128
20.7333 1.9028
20.7500 1.8923
20.7667 1.8813
20.7833 1.8697
20.8000 1.8576
20.8167 1.8450
20.8333 1.8319
20.8500 1.8182
20.8667 1.8041
20.8833 1.7895
20.9000 1.7743
20.9167 1.7587
20.9333 1.7426
20.9500 1.7260
20.9667 1.7089
20.9833 1.6913
21.0000 1.6733
21.0167 1.6548
21.0333 1.6359
21.0500 1.6165
21.0667 1.5966
21.0833 1.5763
21.1000 1.5556
21.1167 1.5344
21.1333 1.5128
21.1500 1.4908
21.1667 1.4684
21.1833 1.4456
21.2000 1.4223
21.2167 1.3987
21.2333 1.3747
21.2500 1.3503
21.2667 1.3255
21.2833 1.3004
21.3000 1.2748
21.3167 1.2490
21.3333 1.2228
21.3500 1.1962
21.3667 1.1694
21.3833 1.1422
21.4000 1.1146
21.4167 1.0868
21.4333 1.0587
21.4500 1.0302
21.4667 1.0015
21.4833 0.9725
21.5000 0.9433
21.5167 0.9138
21.5333 0.8840
21.5500 0.8540
21.5667 0.8237
21.5833 0.7932
21.6000 0.7625
21.6167 0.7316
21.6333 0.7005
21.6500 0.6691
21.6667 0.6376
21.6833 0.6060
21.7000 0.5741
21.7167 0.5421
21.7333 0.5099
21.7500 0.4776
21.7667 0.4452
21.7833 0.4126
21.8000 0.3800
21.8167 0.3472
21.8333 0.3143
21.8500 0.2814
21.8667 0.2483
21.8833 0.2152
21.9000 0.1820
21.9167 0.1488
21.9333 0.1156
21.9500 0.0823
21.9667 0.0490
21.9833 0.0156
22.0000 0.0089
22.0167 0.0255
22.0333 0.0422
22.0500 0.0588
22.0667 0.0754
22.0833 0.0921
22.1000 0.1086
22.1167 0.1252
22.1333 0.1417
22.1500 0.1582
22.1667 0.1746
22.1833 0.1910
22.2000 0.2073
22.2167 0.2236
22.2333 0.2398
22.2500 0.2560
22.2667 0.2720
22.2833 0.2880
22.3000 0.3040
22.3167 0.3198
22.3333 0.3355
22.3500 0.3512
22.3667 0.3668
22.3833 0.3822
22.4000 0.3976
22.4167 0.4128
22.4333 0.4279
22.4500 0.4429
22.4667 0.4578
22.4833 0.4726
22.5000 0.4872
22.5167 0.5017
22.5333 0.5160
22.5500 0.5302
22.5667 0.5443
22.5833 0.5582
22.6000 0.5719
22.6167 0.5855
22.6333 0.5989
22.6500 0.6122
22.6667 0.6253
22.6833 0.6382
22.7000 0.6510
22.7167 0.6635
22.7333 0.6759
22.7500 0.6881
22.7667 0.7001
22.7833 0.7119
22.8000 0.7235
22.8167 0.7349
22.8333 0.7461
